Absorbance:209		
187.658	-0.37	
188.124	-0.37	
188.589	-0.37	
189.055	0.31	
189.521	-0	
189.987	-0	
190.452	-0	
190.918	-0.18	
191.384	-0.09	
191.849	-0	
192.314	-0	
192.78	0.08	
193.245	-0	
193.711	-0	
194.176	-1.02	
194.641	-0	
195.106	-0.29	
195.571	0.22	
196.037	0.13	
196.502	0.58	
196.967	-0.89	
197.431	1.82	
197.896	0.46	
198.361	2.24	
198.826	2.17	
199.291	2.25	
199.755	2.29	
200.22	2.21	
200.685	2.23	
201.149	2.16	
201.614	2.29	
202.078	2.23	
202.543	2.25	
203.007	2.25	
203.471	2.31	
203.936	2.22	
204.4	2.38	
204.864	2.35	
205.328	2.26	
205.792	2.37	
206.256	2.33	
206.72	2.38	
207.184	2.32	
207.648	2.44	
208.112	2.23	
208.576	2.27	
209.039	2.41	
209.503	2.34	
209.967	2.29	
210.43	2.37	
210.894	2.41	
211.357	2.25	
211.821	2.34	
212.284	2.43	
212.747	2.48	
213.211	2.47	
213.674	2.29	
214.137	2.27	
214.6	2.47	
215.063	2.32	
215.526	2.23	
215.989	2.36	
216.452	2.34	
216.915	2.42	
217.378	2.36	
217.841	2.34	
218.304	2.41	
218.767	2.3	
219.229	2.27	
219.692	2.44	
220.154	2.35	
220.617	2.35	
221.079	2.43	
221.542	2.5	
222.004	2.32	
222.467	2.39	
222.929	2.44	
223.391	2.34	
223.853	2.45	
224.315	2.41	
224.777	2.35	
225.239	2.57	
225.701	2.51	
226.163	2.47	
226.625	2.39	
227.087	2.37	
227.549	2.28	
228.011	2.38	
228.472	2.27	
228.934	2.36	
229.396	2.32	
229.857	2.36	
230.319	2.54	
230.78	2.33	
231.242	2.41	
231.703	2.27	
232.164	2.2	
232.626	2.39	
233.087	2.37	
233.548	2.32	
234.009	2.32	
234.47	2.32	
234.931	2.27	
235.392	2.26	
235.853	2.54	
236.314	2.31	
236.775	2.26	
237.235	2.33	
237.696	2.74	
238.157	2.52	
238.618	2.64	
239.078	2.29	
239.539	2.26	
239.999	2.38	
240.46	2.28	
240.92	2.26	
241.38	2.43	
241.841	2.38	
242.301	2.46	
242.761	2.38	
243.221	2.39	
243.681	2.34	
244.141	2.43	
244.601	2.48	
245.061	2.47	
245.521	2.54	
245.981	2.37	
246.441	2.39	
246.901	2.34	
247.36	2.51	
247.82	2.39	
248.28	2.54	
248.739	2.29	
249.199	2.25	
249.658	2.38	
250.117	2.31	
250.577	2.41	
251.036	2.31	
251.495	2.49	
251.955	2.57	
252.414	2.48	
252.873	2.47	
253.332	2.57	
253.791	2.3	
254.25	2.34	
254.709	2.29	
255.168	2.33	
255.627	2.6	
256.085	2.37	
256.544	2.41	
257.003	2.42	
257.461	2.37	
257.92	2.3	
258.379	2.38	
258.837	2.57	
259.295	2.41	
259.754	2.47	
260.212	2.3	
260.67	2.27	
261.129	2.38	
261.587	2.4	
262.045	2.42	
262.503	2.32	
262.961	2.55	
263.419	2.31	
263.877	2.34	
264.335	2.4	
264.793	2.28	
265.251	2.4	
265.708	2.27	
266.166	2.36	
266.624	2.37	
267.081	2.39	
267.539	2.24	
267.996	2.42	
268.454	2.48	
268.911	2.57	
269.369	2.28	
269.826	2.4	
270.283	2.43	
270.74	2.22	
271.198	2.37	
271.655	2.35	
272.112	2.31	
272.569	2.3	
273.026	2.28	
273.483	2.43	
273.94	2.31	
274.396	2.24	
274.853	2.42	
275.31	2.26	
275.767	2.28	
276.223	2.35	
276.68	2.31	
277.136	2.22	
277.593	2.33	
278.049	2.23	
278.506	2.25	
278.962	2.24	
279.418	2.47	
279.874	2.31	
280.331	2.37	
280.787	2.3	
281.243	2.19	
281.699	2.31	
282.155	2.29	
282.611	2.34	
283.067	2.26	
283.522	2.32	
283.978	2.33	
284.434	2.26	
284.89	2.23	
285.345	2.32	
285.801	2.17	
286.256	2.24	
286.712	2.21	
287.167	2.2	
287.623	2.23	
288.078	2.2	
288.533	2.11	
288.989	2.05	
289.444	2.05	
289.899	2.02	
290.354	2	
290.809	1.93	
291.264	1.9	
291.719	1.84	
292.174	1.82	
292.629	1.74	
293.084	1.74	
293.538	1.67	
293.993	1.6	
294.448	1.58	
294.902	1.5	
295.357	1.47	
295.811	1.42	
296.266	1.36	
296.72	1.33	
297.174	1.29	
297.629	1.25	
298.083	1.18	
298.537	1.15	
298.991	1.12	
299.446	1.08	
299.9	1.03	
300.354	1	
300.808	0.95	
301.261	0.91	
301.715	0.88	
302.169	0.84	
302.623	0.81	
303.077	0.77	
303.53	0.74	
303.984	0.71	
304.437	0.68	
304.891	0.64	
305.344	0.63	
305.798	0.59	
306.251	0.57	
306.704	0.54	
307.158	0.53	
307.611	0.51	
308.064	0.48	
308.517	0.48	
308.97	0.44	
309.423	0.43	
309.876	0.42	
310.329	0.4	
310.782	0.38	
311.235	0.35	
311.688	0.33	
312.14	0.32	
312.593	0.3	
313.046	0.3	
313.498	0.28	
313.951	0.27	
314.403	0.26	
314.856	0.24	
315.308	0.23	
315.76	0.23	
316.213	0.22	
316.665	0.21	
317.117	0.2	
317.569	0.19	
318.021	0.19	
318.473	0.17	
318.925	0.17	
319.377	0.15	
319.829	0.15	
320.281	0.15	
320.733	0.15	
321.184	0.14	
321.636	0.14	
322.088	0.14	
322.539	0.13	
322.991	0.12	
323.442	0.13	
323.894	0.13	
324.345	0.12	
324.796	0.11	
325.248	0.11	
325.699	0.11	
326.15	0.1	
326.601	0.09	
327.052	0.09	
327.503	0.09	
327.954	0.08	
328.405	0.07	
328.856	0.07	
329.307	0.06	
329.758	0.07	
330.208	0.06	
330.659	0.05	
331.11	0.05	
331.56	0.05	
332.011	0.05	
332.461	0.04	
332.912	0.04	
333.362	0.04	
333.813	0.04	
334.263	0.04	
334.713	0.04	
335.163	0.04	
335.613	0.04	
336.063	0.04	
336.513	0.04	
336.963	0.05	
337.413	0.05	
337.863	0.04	
338.313	0.05	
338.763	0.05	
339.213	0.05	
339.662	0.05	
340.112	0.04	
340.562	0.05	
341.011	0.05	
341.461	0.05	
341.91	0.04	
342.359	0.05	
342.809	0.05	
343.258	0.04	
343.707	0.05	
344.156	0.05	
344.606	0.05	
345.055	0.04	
345.504	0.05	
345.953	0.05	
346.402	0.05	
346.85	0.05	
347.299	0.04	
347.748	0.04	
348.197	0.05	
348.645	0.05	
349.094	0.05	
349.543	0.05	
349.991	0.05	
350.44	0.05	
350.888	0.05	
351.336	0.05	
351.785	0.05	
352.233	0.05	
352.681	0.05	
353.13	0.05	
353.578	0.05	
354.026	0.05	
354.474	0.05	
354.922	0.05	
355.37	0.05	
355.818	0.06	
356.265	0.05	
356.713	0.06	
357.161	0.06	
357.609	0.06	
358.056	0.06	
358.504	0.06	
358.951	0.06	
359.399	0.06	
359.846	0.06	
360.294	0.06	
360.741	0.06	
361.188	0.06	
361.635	0.06	
362.083	0.06	
362.53	0.06	
362.977	0.06	
363.424	0.06	
363.871	0.06	
364.318	0.06	
364.765	0.06	
365.211	0.06	
365.658	0.07	
366.105	0.06	
366.552	0.06	
366.998	0.07	
367.445	0.06	
367.891	0.06	
368.338	0.06	
368.784	0.06	
369.231	0.06	
369.677	0.06	
370.123	0.06	
370.569	0.06	
371.016	0.06	
371.462	0.06	
371.908	0.07	
372.354	0.07	
372.8	0.07	
373.246	0.07	
373.692	0.07	
374.137	0.07	
374.583	0.07	
375.029	0.07	
375.475	0.08	
375.92	0.08	
376.366	0.08	
376.811	0.07	
377.257	0.07	
377.702	0.07	
378.147	0.07	
378.593	0.07	
379.038	0.06	
379.483	0.06	
379.928	0.06	
380.374	0.06	
380.819	0.05	
381.264	0.05	
381.709	0.05	
382.153	0.06	
382.598	0.06	
383.043	0.06	
383.488	0.07	
383.933	0.07	
384.377	0.07	
384.822	0.07	
385.266	0.07	
385.711	0.07	
386.155	0.08	
386.6	0.08	
387.044	0.08	
387.488	0.08	
387.933	0.08	
388.377	0.08	
388.821	0.08	
389.265	0.07	
389.709	0.08	
390.153	0.08	
390.597	0.08	
391.041	0.09	
391.485	0.09	
391.929	0.09	
392.372	0.09	
392.816	0.08	
393.26	0.08	
393.703	0.07	
394.147	0.06	
394.59	0.06	
395.034	0.06	
395.477	0.07	
395.921	0.08	
396.364	0.09	
396.807	0.09	
397.25	0.1	
397.693	0.1	
398.137	0.09	
398.58	0.09	
399.023	0.08	
399.466	0.08	
399.908	0.07	
400.351	0.06	
400.794	0.06	
401.237	0.07	
401.679	0.08	
402.122	0.09	
402.565	0.09	
403.007	0.1	
403.45	0.11	
403.892	0.1	
404.334	0.1	
404.777	0.1	
405.219	0.11	
405.661	0.1	
406.103	0.1	
406.546	0.1	
406.988	0.1	
407.43	0.1	
407.872	0.1	
408.314	0.11	
408.755	0.11	
409.197	0.11	
409.639	0.11	
410.081	0.11	
410.522	0.11	
410.964	0.11	
411.406	0.11	
411.847	0.12	
412.289	0.12	
412.73	0.11	
413.171	0.11	
413.613	0.12	
414.054	0.12	
414.495	0.11	
414.936	0.12	
415.377	0.11	
415.818	0.12	
416.259	0.12	
416.7	0.12	
417.141	0.12	
417.582	0.12	
418.023	0.12	
418.464	0.12	
418.904	0.12	
419.345	0.12	
419.786	0.12	
420.226	0.12	
420.667	0.12	
421.107	0.12	
421.547	0.12	
421.988	0.12	
422.428	0.11	
422.868	0.1	
423.308	0.1	
423.749	0.1	
424.189	0.1	
424.629	0.1	
425.069	0.11	
425.509	0.11	
425.949	0.11	
426.388	0.11	
426.828	0.11	
427.268	0.12	
427.708	0.12	
428.147	0.12	
428.587	0.13	
429.026	0.12	
429.466	0.12	
429.905	0.12	
430.344	0.12	
430.784	0.11	
431.223	0.1	
431.662	0.09	
432.101	0.1	
432.541	0.09	
432.98	0.1	
433.419	0.11	
433.858	0.12	
434.296	0.12	
434.735	0.13	
435.174	0.13	
435.613	0.13	
436.052	0.13	
436.49	0.13	
436.929	0.12	
437.367	0.12	
437.806	0.12	
438.244	0.11	
438.683	0.12	
439.121	0.12	
439.559	0.12	
439.998	0.12	
440.436	0.13	
440.874	0.13	
441.312	0.12	
441.75	0.13	
442.188	0.13	
442.626	0.12	
443.064	0.13	
443.502	0.12	
443.939	0.12	
444.377	0.12	
444.815	0.12	
445.253	0.12	
445.69	0.11	
446.128	0.11	
446.565	0.11	
447.002	0.11	
447.44	0.12	
447.877	0.11	
448.314	0.11	
448.752	0.11	
449.189	0.12	
449.626	0.11	
450.063	0.11	
450.5	0.11	
450.937	0.12	
451.374	0.11	
451.811	0.12	
452.248	0.12	
452.684	0.12	
453.121	0.12	
453.558	0.12	
453.994	0.12	
454.431	0.13	
454.867	0.13	
455.304	0.13	
455.74	0.12	
456.176	0.13	
456.613	0.13	
457.049	0.13	
457.485	0.13	
457.921	0.13	
458.357	0.13	
458.793	0.12	
459.229	0.13	
459.665	0.13	
460.101	0.12	
460.537	0.13	
460.973	0.12	
461.408	0.12	
461.844	0.12	
462.28	0.12	
462.715	0.12	
463.151	0.12	
463.586	0.12	
464.022	0.13	
464.457	0.13	
464.892	0.13	
465.328	0.13	
465.763	0.13	
466.198	0.12	
466.633	0.12	
467.068	0.11	
467.503	0.11	
467.938	0.11	
468.373	0.11	
468.808	0.12	
469.243	0.12	
469.677	0.12	
470.112	0.12	
470.547	0.13	
470.981	0.13	
471.416	0.13	
471.85	0.13	
472.285	0.13	
472.719	0.13	
473.153	0.13	
473.588	0.13	
474.022	0.12	
474.456	0.12	
474.89	0.12	
475.324	0.12	
475.758	0.11	
476.192	0.1	
476.626	0.1	
477.06	0.1	
477.494	0.1	
477.928	0.1	
478.361	0.1	
478.795	0.09	
479.229	0.1	
479.662	0.1	
480.096	0.1	
480.529	0.09	
480.962	0.09	
481.396	0.09	
481.829	0.09	
482.262	0.07	
482.695	0.07	
483.129	0.06	
483.562	0.06	
483.995	0.06	
484.428	0.05	
484.861	0.05	
485.294	0.05	
485.726	0.05	
486.159	0.03	
486.592	0.02	
487.024	0.01	
487.457	0.01	
487.89	0.01	
488.322	0.01	
488.755	0.01	
489.187	0.01	
489.619	0.02	
490.052	0.03	
490.484	0.03	
490.916	0.04	
491.348	0.04	
491.78	0.04	
492.212	0.04	
492.644	0.04	
493.076	0.04	
493.508	0.04	
493.94	0.04	
494.372	0.04	
494.804	0.04	
495.235	0.04	
495.667	0.04	
496.098	0.03	
496.53	0.03	
496.961	0.03	
497.393	0.02	
497.824	0.02	
498.256	0.02	
498.687	0.02	
499.118	0.02	
499.549	0.02	
499.98	0.03	
500.411	0.03	
500.842	0.04	
501.273	0.04	
501.704	0.04	
502.135	0.03	
502.566	0.03	
502.997	0.03	
503.427	0.02	
503.858	0.02	
504.289	0.02	
504.719	0.02	
505.15	0.02	
505.58	0.02	
506.01	0.02	
506.441	0.02	
506.871	0.02	
507.301	0.02	
507.731	0.02	
508.161	0.03	
508.592	0.03	
509.022	0.03	
509.451	0.03	
509.881	0.03	
510.311	0.03	
510.741	0.03	
511.171	0.03	
511.6	0.03	
512.03	0.03	
512.46	0.03	
512.889	0.03	
513.319	0.03	
513.748	0.03	
514.178	0.03	
514.607	0.03	
515.036	0.03	
515.465	0.03	
515.895	0.04	
516.324	0.04	
516.753	0.04	
517.182	0.04	
517.611	0.04	
518.04	0.04	
518.469	0.04	
518.897	0.04	
519.326	0.04	
519.755	0.04	
520.183	0.04	
520.612	0.04	
521.041	0.04	
521.469	0.04	
521.898	0.04	
522.326	0.05	
522.754	0.05	
523.183	0.05	
523.611	0.05	
524.039	0.05	
524.467	0.05	
524.895	0.05	
525.323	0.05	
525.751	0.05	
526.179	0.05	
526.607	0.05	
527.035	0.05	
527.463	0.05	
527.89	0.05	
528.318	0.06	
528.745	0.05	
529.173	0.05	
529.601	0.05	
530.028	0.05	
530.455	0.05	
530.883	0.05	
531.31	0.05	
531.737	0.05	
532.164	0.05	
532.592	0.05	
533.019	0.05	
533.446	0.05	
533.873	0.05	
534.3	0.05	
534.726	0.04	
535.153	0.04	
535.58	0.04	
536.007	0.04	
536.433	0.04	
536.86	0.04	
537.287	0.04	
537.713	0.04	
538.139	0.04	
538.566	0.04	
538.992	0.04	
539.418	0.04	
539.845	0.03	
540.271	0.03	
540.697	0.03	
541.123	0.03	
541.549	0.03	
541.975	0.03	
542.401	0.03	
542.827	0.03	
543.253	0.03	
543.678	0.03	
544.104	0.03	
544.53	0.03	
544.955	0.03	
545.381	0.03	
545.806	0.03	
546.232	0.02	
546.657	0.03	
547.083	0.03	
547.508	0.02	
547.933	0.02	
548.358	0.02	
548.783	0.02	
549.209	0.02	
549.634	0.02	
550.059	0.02	
550.483	0.02	
550.908	0.02	
551.333	0.03	
551.758	0.03	
552.183	0.03	
552.607	0.03	
553.032	0.03	
553.456	0.02	
553.881	0.02	
554.305	0.02	
554.73	0.02	
555.154	0.02	
555.578	0.02	
556.003	0.02	
556.427	0.01	
556.851	0.01	
557.275	0.02	
557.699	0.02	
558.123	0.02	
558.547	0.02	
558.971	0.03	
559.395	0.03	
559.818	0.04	
560.242	0.04	
560.666	0.04	
561.089	0.03	
561.513	0.03	
561.936	0.02	
562.36	0.02	
562.783	0.01	
563.206	0.01	
563.63	0.01	
564.053	0.01	
564.476	0.01	
564.899	0.01	
565.322	0.01	
565.745	0.02	
566.168	0.02	
566.591	0.02	
567.014	0.02	
567.437	0.03	
567.86	0.03	
568.282	0.02	
568.705	0.02	
569.128	0.01	
569.55	0.01	
569.973	0	
570.395	-0	
570.817	-0	
571.24	-0	
571.662	-0	
572.084	-0	
572.506	-0	
572.928	-0	
573.35	-0	
573.772	-0	
574.194	-0	
574.616	-0	
575.038	-0	
575.46	-0	
575.882	-0	
576.303	-0	
576.725	-0	
577.147	-0	
577.568	-0	
577.99	-0	
578.411	-0	
578.832	-0	
579.254	-0	
579.675	-0	
580.096	-0	
580.517	-0	
580.938	-0	
581.36	-0	
581.781	-0	
582.201	-0	
582.622	-0	
583.043	-0	
583.464	-0	
583.885	-0	
584.305	-0	
584.726	-0	
585.147	-0	
585.567	-0	
585.988	-0	
586.408	-0	
586.828	-0	
587.249	-0	
587.669	-0	
588.089	-0	
588.509	-0	
588.929	-0	
589.349	-0	
589.769	-0	
590.189	-0	
590.609	-0	
591.029	-0	
591.449	-0	
591.868	-0	
592.288	0	
592.708	-0	
593.127	-0	
593.547	-0	
593.966	-0	
594.386	-0	
594.805	-0	
595.224	-0	
595.643	-0	
596.063	-0	
596.482	-0	
596.901	-0	
597.32	0	
597.739	0	
598.158	0	
598.577	-0	
598.995	-0	
599.414	-0	
599.833	-0	
600.252	-0	
600.67	-0	
601.089	-0	
601.507	-0	
601.926	-0	
602.344	-0	
602.762	-0	
603.181	-0	
603.599	-0	
604.017	-0	
604.435	-0	
604.853	-0	
605.271	-0	
605.689	-0	
606.107	-0	
606.525	-0	
606.943	-0	
607.36	-0	
607.778	-0	
608.196	-0	
608.613	-0	
609.031	-0	
609.448	-0	
609.866	-0	
610.283	-0	
610.7	0	
611.118	0.01	
611.535	0.02	
611.952	0.02	
612.369	0.02	
612.786	0.02	
613.203	0.03	
613.62	0.03	
614.037	0.02	
614.454	0.02	
614.87	0.02	
615.287	0.02	
615.704	0.02	
616.12	0.02	
616.537	0.02	
616.953	0.02	
617.37	0.03	
617.786	0.04	
618.203	0.05	
618.619	0.06	
619.035	0.07	
619.451	0.08	
619.868	0.08	
620.284	0.09	
620.7	0.09	
621.116	0.09	
621.531	0.1	
621.947	0.1	
622.363	0.11	
622.779	0.11	
623.195	0.11	
623.61	0.12	
624.026	0.11	
624.441	0.12	
624.857	0.12	
625.272	0.13	
625.688	0.13	
626.103	0.14	
626.518	0.14	
626.933	0.15	
627.349	0.16	
627.764	0.16	
628.179	0.16	
628.594	0.17	
629.009	0.17	
629.424	0.18	
629.838	0.18	
630.253	0.18	
630.668	0.19	
631.083	0.19	
631.497	0.19	
631.912	0.21	
632.326	0.22	
632.741	0.22	
633.155	0.23	
633.57	0.24	
633.984	0.25	
634.398	0.26	
634.812	0.26	
635.226	0.26	
635.64	0.27	
636.054	0.27	
636.468	0.27	
636.882	0.28	
637.296	0.28	
637.71	0.27	
638.124	0.28	
638.537	0.28	
638.951	0.29	
639.365	0.29	
639.778	0.3	
640.192	0.31	
640.605	0.32	
641.019	0.32	
641.432	0.32	
641.845	0.33	
642.258	0.33	
642.672	0.34	
643.085	0.34	
643.498	0.35	
643.911	0.35	
644.324	0.36	
644.737	0.35	
645.149	0.36	
645.562	0.36	
645.975	0.37	
646.388	0.37	
646.8	0.38	
647.213	0.39	
647.625	0.39	
648.038	0.39	
648.45	0.4	
648.862	0.39	
649.275	0.4	
649.687	0.39	
650.099	0.38	
650.511	0.38	
650.923	0.39	
651.335	0.39	
651.747	0.4	
652.159	0.41	
652.571	0.41	
652.983	0.42	
653.395	0.43	
653.806	0.44	
654.218	0.43	
654.63	0.43	
655.041	0.45	
655.453	0.45	
655.864	0.44	
656.275	0.41	
656.687	0.35	
657.098	0.29	
657.509	0.25	
657.92	0.25	
658.332	0.27	
658.743	0.3	
659.154	0.34	
659.565	0.4	
659.975	0.46	
660.386	0.49	
660.797	0.5	
661.208	0.53	
661.618	0.53	
662.029	0.54	
662.44	0.55	
662.85	0.56	
663.261	0.56	
663.671	0.57	
664.081	0.56	
664.492	0.57	
664.902	0.57	
665.312	0.58	
665.722	0.58	
666.132	0.58	
666.542	0.58	
666.952	0.6	
667.362	0.6	
667.772	0.61	
668.182	0.62	
668.591	0.64	
669.001	0.64	
669.411	0.63	
669.82	0.64	
670.23	0.65	
670.639	0.65	
671.049	0.65	
671.458	0.66	
671.867	0.66	
672.277	0.67	
672.686	0.66	
673.095	0.66	
673.504	0.66	
673.913	0.67	
674.322	0.67	
674.731	0.69	
675.14	0.7	
675.549	0.72	
675.957	0.72	
676.366	0.74	
676.775	0.73	
677.183	0.73	
677.592	0.75	
678	0.75	
678.409	0.75	
678.817	0.75	
679.226	0.76	
679.634	0.75	
680.042	0.76	
680.45	0.76	
680.858	0.78	
681.266	0.77	
681.674	0.79	
682.082	0.79	
682.49	0.8	
682.898	0.8	
683.306	0.82	
683.714	0.82	
684.121	0.84	
684.529	0.84	
684.936	0.85	
685.344	0.85	
685.751	0.84	
686.159	0.85	
686.566	0.85	
686.973	0.85	
687.381	0.85	
687.788	0.87	
688.195	0.88	
688.602	0.89	
689.009	0.9	
689.416	0.92	
689.823	0.91	
690.23	0.93	
690.636	0.94	
691.043	0.94	
691.45	0.95	
691.857	0.96	
692.263	0.95	
692.67	0.95	
693.076	0.95	
693.483	0.96	
693.889	0.97	
694.295	0.98	
694.701	0.99	
695.108	0.99	
695.514	1.01	
695.92	1	
696.326	1.03	
696.732	1.03	
697.138	1.04	
697.544	1.04	
697.949	1.03	
698.355	1.03	
698.761	1.03	
699.167	1.05	
699.572	1.04	
699.978	1.06	
700.383	1.06	
700.789	1.09	
701.194	1.1	
701.599	1.08	
702.004	1.12	
702.41	1.13	
702.815	1.13	
703.22	1.12	
703.625	1.12	
704.03	1.12	
704.435	1.14	
704.84	1.15	
705.245	1.16	
705.649	1.15	
706.054	1.17	
706.459	1.18	
706.863	1.2	
707.268	1.2	
707.672	1.19	
708.077	1.18	
708.481	1.2	
708.885	1.19	
709.29	1.19	
709.694	1.2	
710.098	1.21	
710.502	1.22	
710.906	1.24	
711.31	1.25	
711.714	1.25	
712.118	1.26	
712.522	1.26	
712.926	1.27	
713.329	1.26	
713.733	1.27	
714.137	1.3	
714.54	1.3	
714.944	1.3	
715.347	1.29	
715.75	1.29	
716.154	1.3	
716.557	1.3	
716.96	1.32	
717.363	1.34	
717.767	1.35	
718.17	1.35	
718.573	1.36	
718.976	1.36	
719.378	1.35	
719.781	1.36	
720.184	1.37	
720.587	1.38	
720.989	1.4	
721.392	1.39	
721.795	1.4	
722.197	1.4	
722.6	1.4	
723.002	1.42	
723.404	1.43	
723.807	1.44	
724.209	1.45	
724.611	1.46	
725.013	1.45	
725.415	1.44	
725.817	1.46	
726.219	1.47	
726.621	1.46	
727.023	1.48	
727.425	1.48	
727.826	1.5	
728.228	1.5	
728.63	1.48	
729.031	1.5	
729.433	1.52	
729.834	1.51	
730.236	1.51	
730.637	1.51	
731.038	1.52	
731.44	1.53	
731.841	1.54	
732.242	1.54	
732.643	1.52	
733.044	1.53	
733.445	1.52	
733.846	1.54	
734.247	1.53	
734.647	1.54	
735.048	1.55	
735.449	1.55	
735.849	1.6	
736.25	1.57	
736.65	1.57	
737.051	1.57	
737.451	1.59	
737.852	1.59	
738.252	1.59	
738.652	1.6	
739.052	1.61	
739.453	1.66	
739.853	1.62	
740.253	1.64	
740.653	1.65	
741.052	1.65	
741.452	1.65	
741.852	1.67	
742.252	1.67	
742.651	1.72	
743.051	1.69	
743.451	1.68	
743.85	1.71	
744.25	1.73	
744.649	1.74	
745.048	1.68	
745.448	1.75	
745.847	1.73	
746.246	1.73	
746.645	1.77	
747.044	1.77	
747.443	1.73	
747.842	1.78	
748.241	1.78	
748.64	1.75	
749.039	1.81	
749.438	1.78	
749.836	1.77	
750.235	1.79	
750.633	1.81	
751.032	1.84	
751.43	1.8	
751.829	1.8	
752.227	1.8	
752.625	1.82	
753.024	1.78	
753.422	1.84	
753.82	1.75	
754.218	1.75	
754.616	1.78	
755.014	1.8	
755.412	1.83	
755.81	1.79	
756.208	1.76	
756.605	1.8	
757.003	1.8	
757.401	1.76	
757.798	1.77	
758.196	1.78	
758.593	1.75	
758.99	1.82	
759.388	1.78	
759.785	1.8	
760.182	1.79	
760.58	1.86	
760.977	1.85	
761.374	1.83	
761.771	1.82	
762.168	1.88	
762.565	1.84	
762.961	1.91	
763.358	1.84	
763.755	1.89	
764.152	1.9	
764.548	1.91	
764.945	1.85	
765.341	1.9	
765.738	1.87	
766.134	1.87	
766.53	1.89	
766.927	1.86	
767.323	1.87	
767.719	1.87	
768.115	1.86	
768.511	1.93	
768.907	1.95	
769.303	1.95	
769.699	1.91	
770.095	1.93	
770.491	1.94	
770.886	1.9	
771.282	1.99	
771.678	2.05	
772.073	1.97	
772.469	1.92	
772.864	1.92	
773.26	1.95	
773.655	1.99	
774.05	2.03	
774.445	1.97	
774.841	1.98	
775.236	2.03	
775.631	1.97	
776.026	2.01	
776.421	1.96	
776.816	1.94	
777.21	1.99	
777.605	1.96	
778	1.97	
778.395	2	
778.789	2.01	
779.184	2.04	
779.578	2	
779.973	1.99	
780.367	1.97	
780.761	2.02	
781.156	2.06	
781.55	1.97	
781.944	1.96	
782.338	2.01	
782.732	2.08	
783.126	2	
783.52	1.98	
783.914	2.03	
784.308	2.07	
784.701	2.1	
785.095	2.05	
785.489	2.02	
785.882	2.01	
786.276	2.08	
786.669	2.05	
787.063	2.02	
787.456	2.03	
787.85	2.09	
788.243	2.07	
788.636	2.01	
789.029	2.07	
789.422	2	
789.815	2.09	
790.208	2.11	
790.601	2.11	
790.994	2.11	
791.387	2.06	
791.78	2.14	
792.172	2.08	
792.565	2.06	
792.957	2.03	
793.35	2.11	
793.742	2.08	
794.135	2.1	
794.527	2.1	
794.919	2.04	
795.312	2.01	
795.704	1.99	
796.096	2.04	
796.488	2.1	
796.88	2.17	
797.272	2.1	
797.664	2.12	
798.056	2.16	
798.448	2.06	
798.839	2.19	
799.231	2.04	
799.623	2.13	
800.014	2.12	
800.406	2.13	
800.797	2.08	
801.189	2.13	
801.58	2.08	
801.971	2.09	
802.362	2.11	
802.754	2.14	
803.145	2.18	
803.536	2.1	
803.927	2.11	
804.318	2.1	
804.709	2.1	
805.099	2.18	
805.49	2.14	
805.881	2.17	
806.272	2.12	
806.662	2.14	
807.053	2.03	
807.443	2.15	
807.834	2.17	
808.224	2.26	
808.614	2.16	
809.005	2.16	
809.395	2.14	
809.785	2.15	
810.175	2.2	
810.565	2.27	
810.955	2.26	
811.345	2.21	
811.735	2.15	
812.125	2.1	
812.515	2.18	
812.904	2.11	
813.294	2.18	
813.684	2.19	
814.073	2.14	
814.463	2.18	
814.852	2.21	
815.241	2.24	
815.631	2.12	
816.02	2.28	
816.409	2.21	
816.798	2.22	
817.187	2.14	
817.576	2.13	
817.965	2.23	
818.354	2.25	
818.743	2.09	
819.132	2.12	
819.521	2.18	
819.909	2.16	
820.298	2.15	
820.686	2.16	
821.075	2.06	
821.463	2.15	
821.852	2.19	
822.24	2.23	
822.628	2.1	
823.017	2.19	
823.405	2.14	
823.793	2.08	
824.181	2.15	
824.569	2.09	
824.957	2.27	
825.345	2.12	
825.733	2.14	
826.12	2.06	
826.508	2.12	
826.896	2.19	
827.283	2.2	
827.671	2.17	
828.059	2.12	
828.446	2.14	
828.833	2.14	
829.221	2.05	
829.608	2.2	
829.995	2.36	
830.382	2.13	
830.769	2.14	
831.156	2.15	
831.543	2.26	
831.93	2.09	
832.317	2.12	
832.704	2.19	
833.091	2.23	
833.477	2.19	
833.864	2.12	
834.251	2.17	
834.637	2.21	
835.024	2.1	
835.41	2.13	
835.796	2.09	
836.183	2.14	
836.569	2.2	
836.955	2.19	
837.341	2.16	
837.727	2.19	
838.113	2.16	
838.499	2.19	
838.885	2.08	
839.271	2.05	
839.657	2.05	
840.043	2.23	
840.428	2.16	
840.814	2.1	
841.199	2.11	
841.585	2.19	
841.97	2.18	
842.356	2.08	
842.741	2.18	
843.126	2.21	
843.512	2.22	
843.897	2.17	
844.282	2.12	
844.667	2.15	
845.052	2.02	
845.437	2.17	
845.822	2.13	
846.206	2.14	
846.591	2.19	
846.976	2.28	
847.361	2.29	
847.745	2.1	
848.13	2.09	
848.514	2.28	
848.899	2.09	
849.283	2.2	
849.667	2.11	
850.051	2.17	
850.436	2.23	
850.82	2.05	
851.204	2.03	
851.588	2.11	
851.972	2	
852.356	2.01	
852.74	2.18	
853.123	2.1	
853.507	2.05	
853.891	2.08	
854.274	1.99	
854.658	2.02	
855.041	2.05	
855.425	2.12	
855.808	1.99	
856.192	2.13	
856.575	2.04	
856.958	2.1	
857.341	2.13	
857.724	1.91	
858.107	2.06	
858.49	2.08	
858.873	1.99	
859.256	2.07	
859.639	2.12	
860.022	2.09	
860.404	1.99	
860.787	2.11	
861.17	1.97	
861.552	2.14	
861.935	1.89	
862.317	2.28	
862.699	1.99	
863.082	2.03	
863.464	1.99	
863.846	2.08	
864.228	1.96	
864.61	1.9	
864.992	1.92	
865.374	2	
865.756	1.79	
866.138	2.02	
866.52	1.96	
866.902	1.91	
867.283	2.05	
867.665	1.97	
868.046	2.04	
868.428	1.79	
868.809	2.15	
869.191	1.97	
869.572	1.9	
869.953	1.94	
870.335	1.91	
870.716	1.79	
871.097	1.76	
871.478	1.87	
871.859	1.84	
872.24	1.79	
872.621	2.03	
873.001	1.88	
873.382	1.95	
873.763	1.81	
874.143	1.92	
874.524	1.76	
874.905	1.83	
875.285	1.89	
875.665	1.98	
876.046	1.72	
876.426	1.99	
876.806	1.83	
877.186	1.9	
877.567	1.87	
877.947	1.79	
878.327	1.95	
878.707	2.08	
879.086	2	
879.466	1.84	
879.846	2.11	
880.226	1.61	
880.605	1.81	
880.985	1.76	
881.365	1.81	
881.744	2.1	
882.124	1.7	
882.503	1.61	
882.882	1.92	
883.261	1.6	
883.641	1.7	
884.02	1.95	
884.399	1.71	
884.778	1.55	
885.157	1.6	
885.536	1.96	
885.915	1.86	
886.293	1.67	
886.672	1.68	
887.051	1.73	
887.429	1.55	
887.808	1.86	
888.186	1.95	
888.565	1.97	
888.943	1.76	
889.322	1.91	
889.7	1.66	
890.078	1.47	
890.456	1.98	
890.834	1.82	
891.212	1.7	
891.59	2.08	
891.968	1.96	
892.346	1.68	
892.724	1.81	
893.102	1.56	
893.479	1.58	
893.857	1.74	
894.235	1.56	
894.612	1.65	
894.99	1.67	
895.367	1.79	
895.744	1.9	
896.122	1.99	
896.499	1.68	
896.876	1.68	
897.253	1.81	
897.63	1.6	
898.007	1.72	
898.384	1.87	
898.761	1.72	
899.138	1.54	
899.515	1.97	
899.891	1.57	
900.268	2.11	
900.645	1.48	
901.021	1.43	
901.398	1.89	
901.774	1.93	
902.15	1.51	
902.527	1.51	
902.903	1.93	
903.279	2.01	
903.655	1.67	
904.031	1.52	
904.407	1.45	
904.783	1.8	
905.159	1.87	
905.535	1.27	
905.911	1.53	
906.287	1.96	
906.662	2.07	
907.038	-0	
907.413	2.14	
907.789	1.49	
908.164	1.45	
908.54	2.82	
908.915	1.97	
909.29	1.37	
909.666	1.43	
910.041	1.53	
910.416	1.61	
910.791	1.53	
911.166	1.44	
911.541	1.73	
911.916	1.55	
912.29	1.76	
912.665	1.59	
913.04	1.8	
913.414	1.43	
913.789	1.61	
914.163	1.77	
914.538	1.55	
914.912	1.67	
915.287	1.94	
915.661	1.79	
916.035	1.35	
916.409	1.57	
916.783	1.37	
917.157	1.89	
917.531	1.34	
917.905	1.39	
918.279	1.64	
918.653	1.39	
919.027	1.49	
919.4	1.53	
919.774	-0	
920.148	1.46	
920.521	-0	
920.895	1.35	
921.268	1.57	
921.641	2.37	
922.015	1.4	
922.388	2.27	
922.761	1.37	
923.134	-0	
923.507	3.27	
923.88	1.63	
924.253	1.54	
924.626	-0	
924.999	2.58	
925.372	1.65	
925.744	1.54	
926.117	1.2	
926.489	2.38	
926.862	1.35	
927.234	-0	
927.607	-0	
927.979	1.11	
928.352	1.3	
928.724	1.18	
929.096	1.37	
929.468	1.43	
929.84	1.22	
930.212	1.16	
930.584	1.18	
930.956	1.63	
931.328	1.77	
931.7	1.17	
932.071	1.61	
932.443	1.42	
932.814	1.17	
933.186	1.53	
933.557	1.33	
933.929	1.35	
934.3	1.48	
934.672	1.11	
935.043	1.28	
935.414	1.35	
935.785	1.48	
936.156	1.54	
936.527	1.63	
936.898	1.91	
937.269	1.57	
937.64	-0	
938.011	2.06	
938.381	1.38	
938.752	1.29	
939.123	-0	
939.493	1.05	
939.864	1.36	
940.234	-0	
940.604	1.7	
940.975	-0	
941.345	1.43	
941.715	-0	
942.085	1.09	
942.455	1.2	
942.825	-0	
943.195	1.11	
943.565	-0	
943.935	0.93	
944.305	0.94	
944.675	1.75	
945.044	1.45	
945.414	1.86	
945.783	-0	
946.153	1.41	
946.522	1.03	
946.892	1.84	
947.261	1.29	
947.63	-0	
947.999	1.44	
948.369	1.86	
948.738	1.14	
949.107	2.96	
949.476	2.12	
949.844	1.58	
950.213	-0	
950.582	1.27	
950.951	1.3	
951.319	2.42	
951.688	0.94	
952.057	-0	
952.425	2.22	
952.794	1.38	
953.162	1.33	
953.53	1.32	
953.898	1.26	
954.267	0.92	
954.635	2.18	
955.003	1.81	
955.371	2.47	
955.739	1.22	
956.107	-0	
956.475	1.55	
956.842	0.9	
957.21	0.93	
957.578	0.88	
957.945	1.17	
958.313	-0	
958.68	1.67	
959.048	1.4	
959.415	1.69	
959.783	1.21	
960.15	-0	
960.517	1.32	
960.884	-0	
961.251	2.32	
961.618	-0	
961.985	-0	
962.352	1.13	
962.719	1.17	
963.086	1.21	
963.452	0.87	
963.819	1.07	
964.186	0.86	
964.552	-0	
964.919	0.67	
965.285	0.92	
965.652	1.19	
966.018	1.32	
966.384	-0	
966.75	-0	
967.116	2.12	
967.482	1.28	
967.848	-0	
968.214	1.68	
968.58	-0	
968.946	-0	
969.312	1.14	
969.678	1.93	
970.043	1.34	
970.409	0.98	
970.774	-0	
971.14	1.18	
971.505	1.94	
971.871	1.68	
972.236	0.99	
972.601	-0	
972.967	-0	
973.332	0.89	
973.697	-0	
974.062	1.19	
974.427	0.75	
974.792	1.35	
975.156	0.93	
975.521	0.77	
975.886	1.71	
976.251	0.67	
976.615	-0	
976.98	0.83	
977.344	1.21	
977.709	1.28	
978.073	0.95	
978.437	1.46	
978.802	1.51	
979.166	-0	
979.53	-0	
979.894	1.19	
980.258	1.2	
980.622	0.89	
980.986	1	
981.35	2.22	
981.713	1.79	
982.077	0.79	
982.441	-0	
982.804	-0	
983.168	0.75	
983.531	0.68	
983.895	1.68	
984.258	1.18	
984.621	2.71	
984.985	-0	
985.348	1.32	
985.711	1.54	
986.074	1.11	
986.437	0.93	
986.8	1.39	
987.163	0.72	
987.526	0.74	
987.888	1.14	
988.251	1.17	
988.614	-0	
988.976	1.12	
989.339	-0	
989.701	2.15	
990.064	0.79	
990.426	0.99	
990.788	0.84	
991.151	-0	
991.513	0.88	
991.875	1	
992.237	-0	
992.599	1.41	
992.961	-0	
993.323	-0	
993.685	-0	
994.046	0.68	
994.408	0.68	
994.77	-0	
995.131	0.91	
995.493	1.11	
995.854	0.87	
996.216	0.97	
996.577	1.51	
996.938	1.09	
997.299	0.81	
997.661	1.07	
998.022	0.76	
998.383	-0	
998.744	-0	
999.105	0.89	
999.465	-0	
999.826	0.5	
1000.187	0.67	
1000.548	0.64	
1000.908	0.7	
1001.269	0.53	
1001.629	0.98	
1001.99	1.96	
1002.35	1.85	
1002.711	1.64	
1003.071	-0	
1003.431	1.5	
1003.791	1.48	
1004.151	0.84	
1004.511	1.72	
1004.871	-0	
1005.231	1.04	
1005.591	-0	
1005.951	-0	
1006.311	-0	
1006.67	1.01	
1007.03	0.87	
1007.389	-0	
1007.749	-0	
1008.108	0.76	
1008.468	0.63	
1008.827	0.6	
1009.186	-0	
1009.545	1.82	
1009.905	-0	
1010.264	0.68	
1010.623	1.36	
1010.982	-0	
1011.341	-0	
1011.699	0.51	
1012.058	0.7	
1012.417	-0	
1012.776	0.9	
1013.134	1.3	
1013.493	-0	
1013.851	-0	
1014.21	-0	
1014.568	0.8	
1014.926	-0	
1015.284	2.49	
1015.643	-0	
1016.001	-0	
1016.359	-0	
1016.717	-0	
1017.075	0.65	
1017.433	0.87	
1017.79	-0	
1018.148	-0	
1018.506	-0	
1018.864	0.81	
1019.221	1.13	
1019.579	-0	
1019.936	0.86	
1020.294	1.35	
1020.651	1.45	
1021.008	-0	
1021.365	-0	
1021.723	1.16	
1022.08	-0	
1022.437	0.9	
1022.794	1.11	
1023.151	1.18	
1023.507	1.02	
1023.864	-0	
1024.221	0.84	
1024.578	1.01	
1024.934	0.89	
1025.291	0.8	
1025.647	-0	
1026.004	1.39	
1026.36	0.7	
1026.717	0.75	
1027.073	0.56	
1027.429	1.23	
1027.785	0.67	
1028.141	1.04	
1028.497	-0	
1028.853	-0	
1029.209	1.36	
1029.565	1.11	
1029.921	-0	
1030.277	0.97	
1030.632	0.58	
1030.988	-0	
1031.343	1.42	
1031.699	0.74	
1032.054	0.74	
1032.41	0.74	
