Absorbance:209		
187.658	-0.21	
188.124	-0.21	
188.589	-0.21	
189.055	0.49	
189.521	-0	
189.987	0.37	
190.452	-0.29	
190.918	0.48	
191.384	0.6	
191.849	-0	
192.314	-0.14	
192.78	0.43	
193.245	-0	
193.711	0.72	
194.176	-0	
194.641	-0	
195.106	-0	
195.571	-0.01	
196.037	0.14	
196.502	-0.19	
196.967	-0.45	
197.431	0.06	
197.896	-0	
198.361	3.27	
198.826	2.58	
199.291	2.48	
199.755	2.58	
200.22	2.67	
200.685	2.57	
201.149	2.32	
201.614	2.46	
202.078	2.61	
202.543	2.88	
203.007	2.47	
203.471	2.67	
203.936	2.68	
204.4	2.87	
204.864	2.61	
205.328	2.55	
205.792	2.53	
206.256	2.55	
206.72	2.67	
207.184	2.67	
207.648	2.69	
208.112	2.68	
208.576	2.48	
209.039	2.58	
209.503	2.62	
209.967	2.44	
210.43	2.35	
210.894	2.51	
211.357	2.43	
211.821	2.49	
212.284	2.49	
212.747	2.79	
213.211	2.52	
213.674	2.57	
214.137	2.38	
214.6	2.43	
215.063	2.44	
215.526	2.7	
215.989	2.77	
216.452	2.39	
216.915	2.61	
217.378	2.64	
217.841	2.55	
218.304	2.43	
218.767	2.45	
219.229	2.61	
219.692	2.5	
220.154	2.84	
220.617	2.45	
221.079	2.67	
221.542	2.55	
222.004	2.73	
222.467	2.54	
222.929	2.69	
223.391	2.5	
223.853	2.47	
224.315	2.7	
224.777	2.65	
225.239	2.85	
225.701	2.78	
226.163	2.83	
226.625	2.58	
227.087	2.49	
227.549	2.51	
228.011	2.55	
228.472	2.47	
228.934	2.77	
229.396	2.55	
229.857	2.66	
230.319	2.85	
230.78	2.65	
231.242	2.4	
231.703	2.33	
232.164	2.4	
232.626	2.73	
233.087	2.59	
233.548	2.56	
234.009	2.67	
234.47	2.38	
234.931	2.51	
235.392	2.66	
235.853	2.82	
236.314	2.5	
236.775	2.54	
237.235	2.79	
237.696	2.61	
238.157	2.86	
238.618	2.8	
239.078	2.45	
239.539	2.4	
239.999	2.42	
240.46	2.61	
240.92	2.56	
241.38	2.55	
241.841	2.62	
242.301	2.5	
242.761	2.9	
243.221	2.64	
243.681	2.55	
244.141	2.67	
244.601	2.47	
245.061	2.6	
245.521	2.7	
245.981	2.6	
246.441	2.53	
246.901	2.52	
247.36	2.36	
247.82	2.54	
248.28	2.66	
248.739	2.42	
249.199	2.68	
249.658	2.92	
250.117	2.48	
250.577	2.53	
251.036	2.6	
251.495	2.88	
251.955	2.93	
252.414	2.61	
252.873	2.79	
253.332	2.54	
253.791	2.47	
254.25	2.44	
254.709	2.62	
255.168	2.64	
255.627	3.06	
256.085	2.47	
256.544	2.54	
257.003	2.69	
257.461	2.55	
257.92	2.57	
258.379	2.77	
258.837	2.71	
259.295	2.55	
259.754	2.44	
260.212	2.36	
260.67	2.54	
261.129	2.52	
261.587	2.43	
262.045	2.76	
262.503	2.49	
262.961	3.01	
263.419	2.54	
263.877	2.45	
264.335	2.52	
264.793	2.5	
265.251	2.68	
265.708	2.48	
266.166	2.43	
266.624	2.56	
267.081	2.5	
267.539	2.39	
267.996	2.62	
268.454	2.81	
268.911	2.76	
269.369	2.48	
269.826	2.69	
270.283	2.5	
270.74	2.38	
271.198	2.62	
271.655	2.4	
272.112	2.38	
272.569	2.62	
273.026	2.39	
273.483	2.5	
273.94	2.5	
274.396	2.52	
274.853	2.58	
275.31	2.58	
275.767	2.44	
276.223	2.47	
276.68	2.45	
277.136	2.5	
277.593	2.49	
278.049	2.49	
278.506	2.43	
278.962	2.46	
279.418	2.47	
279.874	2.38	
280.331	2.67	
280.787	2.51	
281.243	2.33	
281.699	2.62	
282.155	2.33	
282.611	2.52	
283.067	2.35	
283.522	2.44	
283.978	2.38	
284.434	2.5	
284.89	2.61	
285.345	2.37	
285.801	2.33	
286.256	2.44	
286.712	2.41	
287.167	2.56	
287.623	2.43	
288.078	2.46	
288.533	2.45	
288.989	2.3	
289.444	2.46	
289.899	2.37	
290.354	2.38	
290.809	2.33	
291.264	2.33	
291.719	2.35	
292.174	2.43	
292.629	2.43	
293.084	2.46	
293.538	2.52	
293.993	2.38	
294.448	2.53	
294.902	2.19	
295.357	2.3	
295.811	2.29	
296.266	2.31	
296.72	2.22	
297.174	2.17	
297.629	2.2	
298.083	2.1	
298.537	2.06	
298.991	2.11	
299.446	1.99	
299.9	1.87	
300.354	1.88	
300.808	1.81	
301.261	1.73	
301.715	1.7	
302.169	1.63	
302.623	1.58	
303.077	1.49	
303.53	1.41	
303.984	1.37	
304.437	1.31	
304.891	1.25	
305.344	1.2	
305.798	1.13	
306.251	1.08	
306.704	1.03	
307.158	0.98	
307.611	0.94	
308.064	0.9	
308.517	0.86	
308.97	0.81	
309.423	0.77	
309.876	0.73	
310.329	0.7	
310.782	0.66	
311.235	0.6	
311.688	0.58	
312.14	0.55	
312.593	0.52	
313.046	0.49	
313.498	0.46	
313.951	0.43	
314.403	0.41	
314.856	0.38	
315.308	0.36	
315.76	0.35	
316.213	0.32	
316.665	0.3	
317.117	0.29	
317.569	0.27	
318.021	0.25	
318.473	0.23	
318.925	0.22	
319.377	0.2	
319.829	0.19	
320.281	0.18	
320.733	0.18	
321.184	0.17	
321.636	0.16	
322.088	0.15	
322.539	0.13	
322.991	0.13	
323.442	0.13	
323.894	0.13	
324.345	0.12	
324.796	0.1	
325.248	0.09	
325.699	0.09	
326.15	0.08	
326.601	0.07	
327.052	0.07	
327.503	0.06	
327.954	0.06	
328.405	0.05	
328.856	0.05	
329.307	0.04	
329.758	0.04	
330.208	0.03	
330.659	0.03	
331.11	0.03	
331.56	0.03	
332.011	0.02	
332.461	0.02	
332.912	0.02	
333.362	0.02	
333.813	0.02	
334.263	0.02	
334.713	0.02	
335.163	0.02	
335.613	0.02	
336.063	0.02	
336.513	0.02	
336.963	0.02	
337.413	0.02	
337.863	0.02	
338.313	0.02	
338.763	0.02	
339.213	0.02	
339.662	0.02	
340.112	0.02	
340.562	0.02	
341.011	0.02	
341.461	0.02	
341.91	0.02	
342.359	0.02	
342.809	0.02	
343.258	0.02	
343.707	0.02	
344.156	0.02	
344.606	0.02	
345.055	0.02	
345.504	0.02	
345.953	0.02	
346.402	0.02	
346.85	0.02	
347.299	0.02	
347.748	0.02	
348.197	0.02	
348.645	0.02	
349.094	0.02	
349.543	0.02	
349.991	0.02	
350.44	0.02	
350.888	0.03	
351.336	0.02	
351.785	0.02	
352.233	0.03	
352.681	0.02	
353.13	0.03	
353.578	0.03	
354.026	0.03	
354.474	0.03	
354.922	0.03	
355.37	0.03	
355.818	0.03	
356.265	0.03	
356.713	0.04	
357.161	0.03	
357.609	0.03	
358.056	0.03	
358.504	0.04	
358.951	0.04	
359.399	0.04	
359.846	0.04	
360.294	0.03	
360.741	0.04	
361.188	0.04	
361.635	0.04	
362.083	0.04	
362.53	0.04	
362.977	0.04	
363.424	0.04	
363.871	0.04	
364.318	0.04	
364.765	0.04	
365.211	0.05	
365.658	0.05	
366.105	0.04	
366.552	0.05	
366.998	0.05	
367.445	0.04	
367.891	0.05	
368.338	0.04	
368.784	0.04	
369.231	0.04	
369.677	0.05	
370.123	0.04	
370.569	0.05	
371.016	0.05	
371.462	0.05	
371.908	0.06	
372.354	0.05	
372.8	0.05	
373.246	0.05	
373.692	0.06	
374.137	0.06	
374.583	0.06	
375.029	0.06	
375.475	0.06	
375.92	0.06	
376.366	0.06	
376.811	0.05	
377.257	0.05	
377.702	0.05	
378.147	0.05	
378.593	0.06	
379.038	0.05	
379.483	0.05	
379.928	0.05	
380.374	0.04	
380.819	0.04	
381.264	0.04	
381.709	0.04	
382.153	0.04	
382.598	0.05	
383.043	0.05	
383.488	0.05	
383.933	0.05	
384.377	0.06	
384.822	0.06	
385.266	0.06	
385.711	0.06	
386.155	0.06	
386.6	0.07	
387.044	0.06	
387.488	0.07	
387.933	0.07	
388.377	0.07	
388.821	0.07	
389.265	0.07	
389.709	0.06	
390.153	0.06	
390.597	0.07	
391.041	0.07	
391.485	0.07	
391.929	0.07	
392.372	0.08	
392.816	0.07	
393.26	0.06	
393.703	0.06	
394.147	0.05	
394.59	0.05	
395.034	0.05	
395.477	0.06	
395.921	0.06	
396.364	0.07	
396.807	0.08	
397.25	0.08	
397.693	0.08	
398.137	0.08	
398.58	0.07	
399.023	0.07	
399.466	0.07	
399.908	0.06	
400.351	0.05	
400.794	0.06	
401.237	0.06	
401.679	0.07	
402.122	0.08	
402.565	0.08	
403.007	0.09	
403.45	0.09	
403.892	0.09	
404.334	0.09	
404.777	0.09	
405.219	0.09	
405.661	0.09	
406.103	0.09	
406.546	0.09	
406.988	0.09	
407.43	0.09	
407.872	0.09	
408.314	0.09	
408.755	0.1	
409.197	0.1	
409.639	0.1	
410.081	0.1	
410.522	0.11	
410.964	0.1	
411.406	0.1	
411.847	0.1	
412.289	0.1	
412.73	0.1	
413.171	0.1	
413.613	0.11	
414.054	0.1	
414.495	0.1	
414.936	0.11	
415.377	0.1	
415.818	0.1	
416.259	0.11	
416.7	0.11	
417.141	0.11	
417.582	0.11	
418.023	0.11	
418.464	0.12	
418.904	0.11	
419.345	0.11	
419.786	0.12	
420.226	0.11	
420.667	0.11	
421.107	0.11	
421.547	0.11	
421.988	0.11	
422.428	0.1	
422.868	0.09	
423.308	0.09	
423.749	0.09	
424.189	0.09	
424.629	0.09	
425.069	0.1	
425.509	0.1	
425.949	0.11	
426.388	0.1	
426.828	0.1	
427.268	0.11	
427.708	0.11	
428.147	0.11	
428.587	0.12	
429.026	0.12	
429.466	0.11	
429.905	0.12	
430.344	0.11	
430.784	0.1	
431.223	0.09	
431.662	0.09	
432.101	0.09	
432.541	0.09	
432.98	0.09	
433.419	0.1	
433.858	0.1	
434.296	0.11	
434.735	0.11	
435.174	0.12	
435.613	0.12	
436.052	0.11	
436.49	0.11	
436.929	0.12	
437.367	0.11	
437.806	0.11	
438.244	0.11	
438.683	0.11	
439.121	0.11	
439.559	0.11	
439.998	0.11	
440.436	0.11	
440.874	0.11	
441.312	0.11	
441.75	0.11	
442.188	0.12	
442.626	0.11	
443.064	0.12	
443.502	0.11	
443.939	0.11	
444.377	0.11	
444.815	0.1	
445.253	0.11	
445.69	0.1	
446.128	0.11	
446.565	0.11	
447.002	0.1	
447.44	0.11	
447.877	0.1	
448.314	0.1	
448.752	0.1	
449.189	0.1	
449.626	0.1	
450.063	0.1	
450.5	0.1	
450.937	0.11	
451.374	0.1	
451.811	0.11	
452.248	0.11	
452.684	0.11	
453.121	0.11	
453.558	0.11	
453.994	0.1	
454.431	0.12	
454.867	0.11	
455.304	0.12	
455.74	0.12	
456.176	0.12	
456.613	0.12	
457.049	0.12	
457.485	0.12	
457.921	0.12	
458.357	0.12	
458.793	0.11	
459.229	0.11	
459.665	0.12	
460.101	0.11	
460.537	0.12	
460.973	0.11	
461.408	0.11	
461.844	0.11	
462.28	0.11	
462.715	0.1	
463.151	0.11	
463.586	0.11	
464.022	0.12	
464.457	0.11	
464.892	0.11	
465.328	0.11	
465.763	0.12	
466.198	0.11	
466.633	0.11	
467.068	0.1	
467.503	0.1	
467.938	0.1	
468.373	0.09	
468.808	0.11	
469.243	0.1	
469.677	0.1	
470.112	0.1	
470.547	0.11	
470.981	0.11	
471.416	0.12	
471.85	0.12	
472.285	0.11	
472.719	0.11	
473.153	0.11	
473.588	0.12	
474.022	0.11	
474.456	0.11	
474.89	0.1	
475.324	0.1	
475.758	0.1	
476.192	0.09	
476.626	0.08	
477.06	0.08	
477.494	0.08	
477.928	0.08	
478.361	0.08	
478.795	0.08	
479.229	0.08	
479.662	0.08	
480.096	0.08	
480.529	0.08	
480.962	0.08	
481.396	0.08	
481.829	0.07	
482.262	0.06	
482.695	0.06	
483.129	0.05	
483.562	0.05	
483.995	0.05	
484.428	0.04	
484.861	0.04	
485.294	0.04	
485.726	0.03	
486.159	0.03	
486.592	0.02	
487.024	0.01	
487.457	0	
487.89	-0	
488.322	-0	
488.755	0	
489.187	0.01	
489.619	0.01	
490.052	0.02	
490.484	0.02	
490.916	0.03	
491.348	0.03	
491.78	0.03	
492.212	0.03	
492.644	0.03	
493.076	0.03	
493.508	0.03	
493.94	0.03	
494.372	0.03	
494.804	0.03	
495.235	0.03	
495.667	0.03	
496.098	0.03	
496.53	0.02	
496.961	0.02	
497.393	0.01	
497.824	0.01	
498.256	0.01	
498.687	0.01	
499.118	0.01	
499.549	0.01	
499.98	0.02	
500.411	0.02	
500.842	0.02	
501.273	0.02	
501.704	0.02	
502.135	0.02	
502.566	0.02	
502.997	0.02	
503.427	0.01	
503.858	0.01	
504.289	0.01	
504.719	0.01	
505.15	0.01	
505.58	0.01	
506.01	0.01	
506.441	0.01	
506.871	0.01	
507.301	0.01	
507.731	0.01	
508.161	0.01	
508.592	0.02	
509.022	0.02	
509.451	0.02	
509.881	0.02	
510.311	0.02	
510.741	0.02	
511.171	0.02	
511.6	0.02	
512.03	0.02	
512.46	0.02	
512.889	0.02	
513.319	0.02	
513.748	0.02	
514.178	0.02	
514.607	0.02	
515.036	0.02	
515.465	0.02	
515.895	0.02	
516.324	0.03	
516.753	0.03	
517.182	0.03	
517.611	0.03	
518.04	0.03	
518.469	0.03	
518.897	0.03	
519.326	0.03	
519.755	0.03	
520.183	0.03	
520.612	0.03	
521.041	0.03	
521.469	0.03	
521.898	0.03	
522.326	0.03	
522.754	0.04	
523.183	0.04	
523.611	0.04	
524.039	0.04	
524.467	0.04	
524.895	0.04	
525.323	0.04	
525.751	0.04	
526.179	0.04	
526.607	0.04	
527.035	0.04	
527.463	0.04	
527.89	0.04	
528.318	0.04	
528.745	0.05	
529.173	0.04	
529.601	0.04	
530.028	0.04	
530.455	0.04	
530.883	0.04	
531.31	0.04	
531.737	0.04	
532.164	0.04	
532.592	0.04	
533.019	0.04	
533.446	0.04	
533.873	0.04	
534.3	0.04	
534.726	0.04	
535.153	0.04	
535.58	0.04	
536.007	0.04	
536.433	0.03	
536.86	0.03	
537.287	0.03	
537.713	0.04	
538.139	0.03	
538.566	0.04	
538.992	0.04	
539.418	0.03	
539.845	0.03	
540.271	0.03	
540.697	0.03	
541.123	0.03	
541.549	0.02	
541.975	0.03	
542.401	0.03	
542.827	0.03	
543.253	0.03	
543.678	0.03	
544.104	0.03	
544.53	0.03	
544.955	0.03	
545.381	0.03	
545.806	0.03	
546.232	0.03	
546.657	0.03	
547.083	0.03	
547.508	0.03	
547.933	0.03	
548.358	0.03	
548.783	0.02	
549.209	0.02	
549.634	0.02	
550.059	0.02	
550.483	0.03	
550.908	0.03	
551.333	0.03	
551.758	0.04	
552.183	0.04	
552.607	0.04	
553.032	0.03	
553.456	0.03	
553.881	0.03	
554.305	0.03	
554.73	0.03	
555.154	0.02	
555.578	0.03	
556.003	0.03	
556.427	0.03	
556.851	0.03	
557.275	0.03	
557.699	0.03	
558.123	0.04	
558.547	0.04	
558.971	0.04	
559.395	0.05	
559.818	0.05	
560.242	0.06	
560.666	0.06	
561.089	0.05	
561.513	0.05	
561.936	0.04	
562.36	0.04	
562.783	0.03	
563.206	0.03	
563.63	0.02	
564.053	0.03	
564.476	0.04	
564.899	0.03	
565.322	0.04	
565.745	0.04	
566.168	0.04	
566.591	0.04	
567.014	0.05	
567.437	0.06	
567.86	0.06	
568.282	0.05	
568.705	0.05	
569.128	0.05	
569.55	0.04	
569.973	0.03	
570.395	0.03	
570.817	0.02	
571.24	0.02	
571.662	0.01	
572.084	0	
572.506	-0	
572.928	-0	
573.35	-0	
573.772	-0	
574.194	-0	
574.616	-0	
575.038	-0	
575.46	-0	
575.882	-0	
576.303	-0	
576.725	-0	
577.147	-0	
577.568	-0	
577.99	-0	
578.411	-0	
578.832	-0	
579.254	-0	
579.675	-0	
580.096	-0	
580.517	-0	
580.938	-0	
581.36	-0	
581.781	-0	
582.201	-0	
582.622	-0	
583.043	-0	
583.464	-0	
583.885	-0	
584.305	-0	
584.726	0.01	
585.147	0.02	
585.567	0.03	
585.988	0.02	
586.408	0.02	
586.828	0.02	
587.249	0.02	
587.669	0.02	
588.089	0.02	
588.509	0.02	
588.929	0.03	
589.349	0.04	
589.769	0.04	
590.189	0.05	
590.609	0.06	
591.029	0.06	
591.449	0.07	
591.868	0.09	
592.288	0.09	
592.708	0.1	
593.127	0.1	
593.547	0.09	
593.966	0.08	
594.386	0.07	
594.805	0.07	
595.224	0.07	
595.643	0.08	
596.063	0.09	
596.482	0.1	
596.901	0.11	
597.32	0.13	
597.739	0.14	
598.158	0.14	
598.577	0.13	
598.995	0.13	
599.414	0.12	
599.833	0.1	
600.252	0.09	
600.67	0.08	
601.089	0.08	
601.507	0.08	
601.926	0.08	
602.344	0.09	
602.762	0.11	
603.181	0.12	
603.599	0.14	
604.017	0.15	
604.435	0.16	
604.853	0.15	
605.271	0.15	
605.689	0.14	
606.107	0.14	
606.525	0.14	
606.943	0.13	
607.36	0.13	
607.778	0.13	
608.196	0.13	
608.613	0.13	
609.031	0.14	
609.448	0.15	
609.866	0.18	
610.283	0.19	
610.7	0.21	
611.118	0.24	
611.535	0.25	
611.952	0.27	
612.369	0.28	
612.786	0.28	
613.203	0.29	
613.62	0.29	
614.037	0.3	
614.454	0.3	
614.87	0.31	
615.287	0.31	
615.704	0.31	
616.12	0.31	
616.537	0.31	
616.953	0.33	
617.37	0.34	
617.786	0.36	
618.203	0.38	
618.619	0.4	
619.035	0.42	
619.451	0.43	
619.868	0.45	
620.284	0.46	
620.7	0.47	
621.116	0.47	
621.531	0.49	
621.947	0.49	
622.363	0.5	
622.779	0.51	
623.195	0.51	
623.61	0.52	
624.026	0.52	
624.441	0.54	
624.857	0.54	
625.272	0.55	
625.688	0.56	
626.103	0.58	
626.518	0.59	
626.933	0.6	
627.349	0.61	
627.764	0.62	
628.179	0.63	
628.594	0.64	
629.009	0.64	
629.424	0.66	
629.838	0.67	
630.253	0.68	
630.668	0.68	
631.083	0.69	
631.497	0.71	
631.912	0.71	
632.326	0.73	
632.741	0.75	
633.155	0.76	
633.57	0.78	
633.984	0.78	
634.398	0.79	
634.812	0.81	
635.226	0.82	
635.64	0.83	
636.054	0.83	
636.468	0.85	
636.882	0.85	
637.296	0.87	
637.71	0.87	
638.124	0.88	
638.537	0.9	
638.951	0.9	
639.365	0.91	
639.778	0.92	
640.192	0.94	
640.605	0.96	
641.019	0.95	
641.432	0.97	
641.845	0.98	
642.258	0.98	
642.672	1	
643.085	1.01	
643.498	1.02	
643.911	1.04	
644.324	1.04	
644.737	1.05	
645.149	1.07	
645.562	1.08	
645.975	1.08	
646.388	1.09	
646.8	1.12	
647.213	1.14	
647.625	1.13	
648.038	1.14	
648.45	1.16	
648.862	1.16	
649.275	1.16	
649.687	1.18	
650.099	1.17	
650.511	1.17	
650.923	1.19	
651.335	1.22	
651.747	1.22	
652.159	1.21	
652.571	1.26	
652.983	1.24	
653.395	1.27	
653.806	1.29	
654.218	1.29	
654.63	1.3	
655.041	1.31	
655.453	1.32	
655.864	1.33	
656.275	1.33	
656.687	1.28	
657.098	1.26	
657.509	1.21	
657.92	1.22	
658.332	1.23	
658.743	1.26	
659.154	1.31	
659.565	1.36	
659.975	1.42	
660.386	1.44	
660.797	1.49	
661.208	1.52	
661.618	1.51	
662.029	1.56	
662.44	1.57	
662.85	1.58	
663.261	1.59	
663.671	1.6	
664.081	1.6	
664.492	1.62	
664.902	1.63	
665.312	1.66	
665.722	1.66	
666.132	1.65	
666.542	1.67	
666.952	1.67	
667.362	1.72	
667.772	1.73	
668.182	1.72	
668.591	1.74	
669.001	1.76	
669.411	1.75	
669.82	1.75	
670.23	1.79	
670.639	1.82	
671.049	1.85	
671.458	1.85	
671.867	1.84	
672.277	1.84	
672.686	1.9	
673.095	1.86	
673.504	1.86	
673.913	1.94	
674.322	1.93	
674.731	2	
675.14	2	
675.549	2	
675.957	1.98	
676.366	2.1	
676.775	2.04	
677.183	2.03	
677.592	2.06	
678	2.11	
678.409	2.18	
678.817	2.12	
679.226	2.02	
679.634	2.05	
680.042	2.11	
680.45	2.2	
680.858	2.15	
681.266	2.2	
681.674	2.18	
682.082	2.23	
682.49	2.2	
682.898	2.25	
683.306	2.34	
683.714	2.32	
684.121	2.3	
684.529	2.32	
684.936	2.35	
685.344	2.43	
685.751	2.13	
686.159	2.32	
686.566	2.26	
686.973	2.28	
687.381	2.34	
687.788	2.5	
688.195	2.41	
688.602	2.45	
689.009	2.58	
689.416	2.38	
689.823	2.54	
690.23	2.6	
690.636	2.47	
691.043	2.34	
691.45	2.77	
691.857	2.67	
692.263	2.67	
692.67	2.58	
693.076	2.41	
693.483	2.76	
693.889	2.87	
694.295	2.6	
694.701	2.74	
695.108	2.59	
695.514	2.93	
695.92	2.5	
696.326	2.91	
696.732	2.53	
697.138	2.67	
697.544	2.71	
697.949	2.89	
698.355	3.34	
698.761	2.96	
699.167	2.76	
699.572	2.84	
699.978	2.8	
700.383	2.59	
700.789	3.79	
701.194	2.48	
701.599	2.61	
702.004	2.71	
702.41	2.68	
702.815	3.1	
703.22	2.67	
703.625	2.85	
704.03	2.69	
704.435	2.67	
704.84	3.04	
705.245	2.68	
705.649	2.75	
706.054	2.83	
706.459	2.74	
706.863	3.03	
707.268	2.84	
707.672	2.91	
708.077	2.62	
708.481	2.86	
708.885	2.84	
709.29	2.75	
709.694	-0	
710.098	2.84	
710.502	3.14	
710.906	2.85	
711.31	3.14	
711.714	3.06	
712.118	3.34	
712.522	4.86	
712.926	3.08	
713.329	2.79	
713.733	2.78	
714.137	3.37	
714.54	3.46	
714.944	-0	
715.347	2.86	
715.75	3.03	
716.154	2.76	
716.557	2.73	
716.96	3.08	
717.363	4.86	
717.767	-0	
718.17	2.76	
718.573	3.63	
718.976	4.06	
719.378	2.96	
719.781	2.88	
720.184	2.98	
720.587	2.8	
720.989	3.79	
721.392	3.9	
721.795	-0	
722.197	2.86	
722.6	2.64	
723.002	3.03	
723.404	2.87	
723.807	2.83	
724.209	-0	
724.611	-0	
725.013	3.9	
725.415	2.81	
725.817	3.19	
726.219	3.3	
726.621	2.92	
727.023	2.76	
727.425	-0	
727.826	3.22	
728.228	-0	
728.63	2.96	
729.031	3.51	
729.433	-0	
729.834	-0	
730.236	3.06	
730.637	3.31	
731.038	-0	
731.44	2.91	
731.841	4.86	
732.242	3.06	
732.643	3.51	
733.044	3.38	
733.445	3.79	
733.846	3.46	
734.247	3.24	
734.647	3.19	
735.048	3.22	
735.449	3.24	
735.849	4.06	
736.25	2.86	
736.65	2.95	
737.051	2.96	
737.451	3.1	
737.852	-0	
738.252	3.24	
738.652	2.92	
739.052	2.88	
739.453	-0	
739.853	3.04	
740.253	-0	
740.653	4.29	
741.052	3.27	
741.452	-0	
741.852	-0	
742.252	3.31	
742.651	3.03	
743.051	-0	
743.451	2.88	
743.85	2.72	
744.25	-0	
744.649	-0	
745.048	3.06	
745.448	3.06	
745.847	3.9	
746.246	3.34	
746.645	-0	
747.044	4.86	
747.443	-0	
747.842	3.03	
748.241	-0	
748.64	3.42	
749.039	-0	
749.438	2.96	
749.836	3.04	
750.235	2.99	
750.633	3.63	
751.032	-0	
751.43	3.63	
751.829	2.84	
752.227	-0	
752.625	3.17	
753.024	2.78	
753.422	-0	
753.82	2.71	
754.218	2.79	
754.616	2.92	
755.014	3.06	
755.412	3.31	
755.81	3.46	
756.208	2.64	
756.605	-0	
757.003	-0	
757.401	2.66	
757.798	3.12	
758.196	2.98	
758.593	2.71	
758.99	3.79	
759.388	3.56	
759.785	-0	
760.182	3.56	
760.58	3.46	
760.977	3.24	
761.374	3.42	
761.771	-0	
762.168	3.08	
762.565	3.12	
762.961	-0	
763.358	-0	
763.755	3.24	
764.152	3.01	
764.548	-0	
764.945	3.22	
765.341	-0	
765.738	3.27	
766.134	4.86	
766.53	2.93	
766.927	3.14	
767.323	3.56	
767.719	3.01	
768.115	2.91	
768.511	2.99	
768.907	3.3	
769.303	3.63	
769.699	2.9	
770.095	3.03	
770.491	2.65	
770.886	2.74	
771.282	-0	
771.678	-0	
772.073	4.06	
772.469	3.03	
772.864	2.62	
773.26	-0	
773.655	2.81	
774.05	-0	
774.445	3.03	
774.841	2.95	
775.236	4.29	
775.631	2.93	
776.026	3.1	
776.421	2.86	
776.816	3.08	
777.21	3.63	
777.605	3.06	
778	2.84	
778.395	-0	
778.789	2.75	
779.184	2.98	
779.578	2.81	
779.973	-0	
780.367	3.17	
780.761	-0	
781.156	3.03	
781.55	2.81	
781.944	3.06	
782.338	3.01	
782.732	3.7	
783.126	3.08	
783.52	2.91	
783.914	-0	
784.308	-0	
784.701	3.46	
785.095	2.83	
785.489	3.19	
785.882	3.19	
786.276	-0	
786.669	-0	
787.063	-0	
787.456	2.88	
787.85	2.93	
788.243	2.92	
788.636	3.1	
789.029	3.22	
789.422	2.7	
789.815	4.86	
790.208	3.56	
790.601	3.17	
790.994	2.96	
791.387	2.73	
791.78	3.9	
792.172	3.19	
792.565	-0	
792.957	3.27	
793.35	3.17	
793.742	-0	
794.135	2.93	
794.527	-0	
794.919	4.86	
795.312	3.42	
795.704	3.34	
796.096	3.46	
796.488	-0	
796.88	-0	
797.272	-0	
797.664	-0	
798.056	-0	
798.448	2.78	
798.839	3.3	
799.231	2.61	
799.623	3.1	
800.014	2.99	
800.406	-0	
800.797	3.12	
801.189	-0	
801.58	3.03	
801.971	-0	
802.362	-0	
802.754	3.19	
803.145	4.05	
803.536	-0	
803.927	3.37	
804.318	3.5	
804.709	2.63	
805.099	3.21	
805.49	3.14	
805.881	2.93	
806.272	3.05	
806.662	3.45	
807.053	2.68	
807.443	-0	
807.834	3.79	
808.224	-0	
808.614	3.04	
809.005	3.02	
809.395	2.81	
809.785	3.89	
810.175	3	
810.565	-0	
810.955	-0	
811.345	-0	
811.735	3.44	
812.125	3.03	
812.515	4.04	
812.904	4.84	
813.294	3.26	
813.684	-0	
814.073	3.29	
814.463	3.2	
814.852	-0	
815.241	3.61	
815.631	-0	
816.02	3.88	
816.409	3.04	
816.798	3.22	
817.187	-0	
817.576	3.54	
817.965	-0	
818.354	3.68	
818.743	3.22	
819.132	2.87	
819.521	-0	
819.909	-0	
820.298	3.31	
820.686	-0	
821.075	2.81	
821.463	-0	
821.852	3.09	
822.24	-0	
822.628	2.81	
823.017	2.94	
823.405	4.82	
823.793	-0	
824.181	4.02	
824.569	-0	
824.957	2.98	
825.345	-0	
825.733	2.86	
826.12	3	
826.508	3.17	
826.896	2.67	
827.283	-0	
827.671	2.98	
828.059	2.95	
828.446	2.66	
828.833	4.81	
829.221	3.26	
829.608	2.96	
829.995	-0	
830.382	3.04	
830.769	3.4	
831.156	3.35	
831.543	-0	
831.93	-0	
832.317	3.72	
832.704	3.43	
833.091	3.71	
833.477	3.33	
833.864	2.98	
834.251	-0	
834.637	2.94	
835.024	2.94	
835.41	2.89	
835.796	3.07	
836.183	3.47	
836.569	-0	
836.955	2.86	
837.341	-0	
837.727	4.75	
838.113	3.34	
838.499	-0	
838.885	2.77	
839.271	2.9	
839.657	2.76	
840.043	3.78	
840.428	-0	
840.814	2.65	
841.199	-0	
841.585	2.6	
841.97	-0	
842.356	-0	
842.741	-0	
843.126	-0	
843.512	-0	
843.897	-0	
844.282	-0	
844.667	2.59	
845.052	2.59	
845.437	-0	
845.822	2.9	
846.206	-0	
846.591	-0	
846.976	-0	
847.361	-0	
847.745	3.02	
848.13	-0	
848.514	-0	
848.899	3.16	
849.283	3.16	
849.667	2.74	
850.051	-0	
850.436	-0	
850.82	-0	
851.204	-0	
851.588	3.45	
851.972	2.65	
852.356	2.32	
852.74	-0	
853.123	3.52	
853.507	2.87	
853.891	2.89	
854.274	3.34	
854.658	2.52	
855.041	-0	
855.425	-0	
855.808	3.49	
856.192	2.86	
856.575	2.76	
856.958	2.38	
857.341	-0	
857.724	2.81	
858.107	-0	
858.49	2.74	
858.873	2.55	
859.256	3.16	
859.639	-0	
860.022	-0	
860.404	2.9	
860.787	-0	
861.17	3.52	
861.552	3.31	
861.935	-0	
862.317	-0	
862.699	-0	
863.082	-0	
863.464	-0	
863.846	2.79	
864.228	-0	
864.61	2.52	
864.992	-0	
865.374	3.24	
865.756	2.53	
866.138	-0	
866.52	-0	
866.902	2.58	
867.283	3.01	
867.665	-0	
868.046	-0	
868.428	2.36	
868.809	-0	
869.191	3.38	
869.572	2.27	
869.953	-0	
870.335	2.59	
870.716	-0	
871.097	2.74	
871.478	2.33	
871.859	3.33	
872.24	2.58	
872.621	-0	
873.001	2.57	
873.382	3.45	
873.763	2.58	
874.143	4.24	
874.524	2.52	
874.905	2.78	
875.285	2.97	
875.665	3.25	
876.046	2.29	
876.426	-0	
876.806	-0	
877.186	2.29	
877.567	-0	
877.947	3.09	
878.327	2.99	
878.707	-0	
879.086	3.57	
879.466	-0	
879.846	-0	
880.226	2.27	
880.605	-0	
880.985	-0	
881.365	2.3	
881.744	-0	
882.124	-0	
882.503	-0	
882.882	-0	
883.261	2.03	
883.641	2.17	
884.02	-0	
884.399	2.72	
884.778	2.67	
885.157	2.1	
885.536	3.04	
885.915	2.35	
886.293	2.65	
886.672	-0	
887.051	2	
887.429	1.7	
887.808	2.22	
888.186	-0	
888.565	-0	
888.943	-0	
889.322	-0	
889.7	2.01	
890.078	3.01	
890.456	3.38	
890.834	-0	
891.212	3	
891.59	-0	
891.968	2.1	
892.346	-0	
892.724	2.87	
893.102	3.15	
893.479	2.08	
893.857	3.94	
894.235	2.03	
894.612	2.38	
894.99	-0	
895.367	-0	
895.744	-0	
896.122	3.13	
896.499	-0	
896.876	-0	
897.253	-0	
897.63	-0	
898.007	-0	
898.384	-0	
898.761	-0	
899.138	3.89	
899.515	-0	
899.891	2.09	
900.268	-0	
900.645	-0	
901.021	1.72	
901.398	-0	
901.774	-0	
902.15	1.8	
902.527	1.95	
902.903	-0	
903.279	3.77	
903.655	-0	
904.031	1.98	
904.407	1.78	
904.783	2.77	
905.159	-0	
905.535	1.89	
905.911	-0	
906.287	3.7	
906.662	-0	
907.038	-0	
907.413	-0	
907.789	-0	
908.164	1.52	
908.54	-0	
908.915	-0	
909.29	2.23	
909.666	-0	
910.041	1.92	
910.416	-0	
910.791	-0	
911.166	2.53	
911.541	-0	
911.916	2.79	
912.29	2.49	
912.665	-0	
913.04	-0	
913.414	2.17	
913.789	2.11	
914.163	-0	
914.538	1.85	
914.912	2.48	
915.287	-0	
915.661	1.47	
916.035	-0	
916.409	2.23	
916.783	1.78	
917.157	-0	
917.531	-0	
917.905	-0	
918.279	1.48	
918.653	1.89	
919.027	1.55	
919.4	-0	
919.774	-0	
920.148	1.4	
920.521	-0	
920.895	1.76	
921.268	2.89	
921.641	-0	
922.015	-0	
922.388	2.2	
922.761	-0	
923.134	-0	
923.507	-0	
923.88	1.54	
924.253	-0	
924.626	-0	
924.999	-0	
925.372	-0	
925.744	2.11	
926.117	1.71	
926.489	-0	
926.862	1.79	
927.234	-0	
927.607	2.02	
927.979	1.96	
928.352	-0	
928.724	-0	
929.096	1.71	
929.468	-0	
929.84	-0	
930.212	1.98	
930.584	1.58	
930.956	1.35	
931.328	-0	
931.7	-0	
932.071	1.66	
932.443	-0	
932.814	2.06	
933.186	-0	
933.557	1.59	
933.929	-0	
934.3	2.21	
934.672	2.46	
935.043	1.76	
935.414	1.77	
935.785	-0	
936.156	-0	
936.527	1.63	
936.898	-0	
937.269	-0	
937.64	-0	
938.011	-0	
938.381	-0	
938.752	1.51	
939.123	-0	
939.493	1.33	
939.864	1.49	
940.234	-0	
940.604	-0	
940.975	1.78	
941.345	-0	
941.715	2.37	
942.085	1.38	
942.455	1.46	
942.825	-0	
943.195	1.76	
943.565	-0	
943.935	1.38	
944.305	1.34	
944.675	-0	
945.044	-0	
945.414	-0	
945.783	-0	
946.153	2.19	
946.522	2.58	
946.892	1.56	
947.261	-0	
947.63	-0	
947.999	1.55	
948.369	2.03	
948.738	1.15	
949.107	-0	
949.476	-0	
949.844	-0	
950.213	-0	
950.582	1.48	
950.951	1.49	
951.319	-0	
951.688	3.06	
952.057	-0	
952.425	1.33	
952.794	2.24	
953.162	1.48	
953.53	-0	
953.898	-0	
954.267	1.58	
954.635	-0	
955.003	-0	
955.371	-0	
955.739	1.38	
956.107	-0	
956.475	2.08	
956.842	-0	
957.21	-0	
957.578	1.01	
957.945	-0	
958.313	-0	
958.68	-0	
959.048	-0	
959.415	-0	
959.783	1.33	
960.15	-0	
960.517	1.59	
960.884	-0	
961.251	-0	
961.618	-0	
961.985	-0	
962.352	1.14	
962.719	-0	
963.086	-0	
963.452	1.7	
963.819	-0	
964.186	-0	
964.552	-0	
964.919	-0	
965.285	1.78	
965.652	1.12	
966.018	1.67	
966.384	-0	
966.75	-0	
967.116	-0	
967.482	-0	
967.848	-0	
968.214	-0	
968.58	1.39	
968.946	-0	
969.312	1.47	
969.678	1.67	
970.043	2.89	
970.409	0.88	
970.774	1.67	
971.14	0.83	
971.505	-0	
971.871	-0	
972.236	1.22	
972.601	-0	
972.967	-0	
973.332	1.17	
973.697	-0	
974.062	1.16	
974.427	1.15	
974.792	1.72	
975.156	1.05	
975.521	1.59	
975.886	-0	
976.251	1.81	
976.615	-0	
976.98	-0	
977.344	1.62	
977.709	1.13	
978.073	1.09	
978.437	-0	
978.802	1.86	
979.166	2.04	
979.53	-0	
979.894	0.76	
980.258	-0	
980.622	-0	
980.986	1.37	
981.35	-0	
981.713	2.31	
982.077	1.11	
982.441	-0	
982.804	-0	
983.168	0.98	
983.531	1.14	
983.895	-0	
984.258	2.2	
984.621	-0	
984.985	-0	
985.348	-0	
985.711	-0	
986.074	1.11	
986.437	1.41	
986.8	-0	
987.163	2.21	
987.526	-0	
987.888	1.77	
988.251	2.76	
988.614	-0	
988.976	-0	
989.339	2.12	
989.701	-0	
990.064	1.1	
990.426	1.34	
990.788	-0	
991.151	-0	
991.513	1.62	
991.875	0.94	
992.237	-0	
992.599	-0	
992.961	2.16	
993.323	-0	
993.685	0.82	
994.046	1.34	
994.408	-0	
994.77	-0	
995.131	-0	
995.493	1.07	
995.854	1.86	
996.216	-0	
996.577	-0	
996.938	2.08	
997.299	-0	
997.661	-0	
998.022	-0	
998.383	-0	
998.744	-0	
999.105	1.34	
999.465	-0	
999.826	1.57	
1000.187	-0	
1000.548	1.82	
1000.908	-0	
1001.269	0.77	
1001.629	0.88	
1001.99	-0	
1002.35	-0	
1002.711	-0	
1003.071	-0	
1003.431	-0	
1003.791	-0	
1004.151	0.6	
1004.511	-0	
1004.871	-0	
1005.231	0.74	
1005.591	-0	
1005.951	-0	
1006.311	-0	
1006.67	-0	
1007.03	-0	
1007.389	-0	
1007.749	-0	
1008.108	-0	
1008.468	1.09	
1008.827	-0	
1009.186	-0	
1009.545	0.93	
1009.905	1.35	
1010.264	1.07	
1010.623	1.36	
1010.982	0.75	
1011.341	-0	
1011.699	-0	
1012.058	-0	
1012.417	-0	
1012.776	-0	
1013.134	1.14	
1013.493	-0	
1013.851	-0	
1014.21	1.06	
1014.568	-0	
1014.926	-0	
1015.284	0.95	
1015.643	-0	
1016.001	1.94	
1016.359	-0	
1016.717	1.78	
1017.075	1.18	
1017.433	0.59	
1017.79	-0	
1018.148	2.56	
1018.506	-0	
1018.864	-0	
1019.221	-0	
1019.579	1	
1019.936	-0	
1020.294	2.43	
1020.651	1.32	
1021.008	-0	
1021.365	-0	
1021.723	-0	
1022.08	-0	
1022.437	1.32	
1022.794	-0	
1023.151	-0	
1023.507	1.02	
1023.864	-0	
1024.221	1.18	
1024.578	-0	
1024.934	-0	
1025.291	0.82	
1025.647	-0	
1026.004	-0	
1026.36	-0	
1026.717	-0	
1027.073	0.74	
1027.429	-0	
1027.785	-0	
1028.141	0.81	
1028.497	-0	
1028.853	-0	
1029.209	-0	
1029.565	0.83	
1029.921	-0	
1030.277	0.86	
1030.632	0.68	
1030.988	-0	
1031.343	-0	
1031.699	0.97	
1032.054	0.97	
1032.41	0.97	
