Absorbance: 0.21	
187.923	-0	
188.387	-0	
188.851	-0	
189.315	-2.58	
189.779	-1.62	
190.242	-1.6	
190.706	-2.57	
191.17	-0	
191.633	-0	
192.097	-0	
192.56	-1.41	
193.024	-0	
193.487	-0	
193.951	-0	
194.414	-0	
194.877	-1.76	
195.34	-1.83	
195.803	-0	
196.266	-0	
196.73	-1.75	
197.193	-2.32	
197.656	-1.34	
198.118	-0	
198.581	-1.08	
199.044	-0.55	
199.507	-0.53	
199.97	-0.46	
200.432	-0.47	
200.895	-0.53	
201.358	-0.48	
201.82	-0.5	
202.283	-0.49	
202.745	-0.47	
203.207	-0.47	
203.67	-0.5	
204.132	-0.52	
204.594	-0.52	
205.056	-0.46	
205.519	-0.49	
205.981	-0.56	
206.443	-0.52	
206.905	-0.49	
207.367	-0.52	
207.829	-0.45	
208.291	-0.54	
208.752	-0.59	
209.214	-0.49	
209.676	-0.48	
210.138	-0.44	
210.599	-0.44	
211.061	-0.49	
211.522	-0.47	
211.984	-0.5	
212.445	-0.45	
212.907	-0.55	
213.368	-0.48	
213.829	-0.46	
214.291	-0.43	
214.752	-0.45	
215.213	-0.38	
215.674	-0.37	
216.135	-0.33	
216.596	-0.29	
217.057	-0.24	
217.518	-0.25	
217.979	-0.21	
218.44	-0.15	
218.9	-0.07	
219.361	-0.01	
219.822	0.01	
220.282	0.05	
220.743	0.08	
221.204	0.11	
221.664	0.13	
222.125	0.17	
222.585	0.2	
223.045	0.28	
223.506	0.28	
223.966	0.29	
224.426	0.33	
224.886	0.34	
225.346	0.36	
225.806	0.4	
226.266	0.4	
226.726	0.42	
227.186	0.44	
227.646	0.46	
228.106	0.44	
228.566	0.45	
229.025	0.46	
229.485	0.47	
229.945	0.48	
230.404	0.48	
230.864	0.5	
231.323	0.49	
231.783	0.49	
232.242	0.5	
232.702	0.49	
233.161	0.52	
233.62	0.52	
234.079	0.53	
234.538	0.53	
234.998	0.54	
235.457	0.51	
235.916	0.55	
236.375	0.55	
236.834	0.54	
237.292	0.56	
237.751	0.59	
238.21	0.59	
238.669	0.57	
239.127	0.57	
239.586	0.58	
240.045	0.6	
240.503	0.61	
240.962	0.59	
241.42	0.61	
241.878	0.59	
242.337	0.61	
242.795	0.61	
243.253	0.62	
243.712	0.61	
244.17	0.64	
244.628	0.63	
245.086	0.63	
245.544	0.62	
246.002	0.63	
246.46	0.64	
246.918	0.65	
247.375	0.66	
247.833	0.69	
248.291	0.67	
248.749	0.68	
249.206	0.68	
249.664	0.67	
250.121	0.68	
250.579	0.68	
251.036	0.7	
251.494	0.7	
251.951	0.72	
252.408	0.74	
252.866	0.74	
253.323	0.76	
253.78	0.76	
254.237	0.75	
254.694	0.78	
255.151	0.77	
255.608	0.76	
256.065	0.78	
256.522	0.75	
256.979	0.76	
257.435	0.81	
257.892	0.77	
258.349	0.79	
258.805	0.79	
259.262	0.79	
259.718	0.78	
260.175	0.81	
260.631	0.8	
261.088	0.8	
261.544	0.8	
262	0.8	
262.457	0.81	
262.913	0.82	
263.369	0.82	
263.825	0.82	
264.281	0.85	
264.737	0.83	
265.193	0.87	
265.649	0.81	
266.105	0.84	
266.561	0.82	
267.016	0.83	
267.472	0.83	
267.928	0.82	
268.383	0.82	
268.839	0.8	
269.294	0.81	
269.75	0.84	
270.205	0.83	
270.661	0.82	
271.116	0.84	
271.571	0.85	
272.026	0.84	
272.482	0.84	
272.937	0.83	
273.392	0.83	
273.847	0.85	
274.302	0.81	
274.757	0.81	
275.212	0.81	
275.666	0.81	
276.121	0.82	
276.576	0.85	
277.031	0.83	
277.485	0.85	
277.94	0.83	
278.395	0.81	
278.849	0.85	
279.303	0.84	
279.758	0.84	
280.212	0.84	
280.667	0.85	
281.121	0.86	
281.575	0.85	
282.029	0.85	
282.483	0.84	
282.937	0.83	
283.391	0.84	
283.845	0.85	
284.299	0.81	
284.753	0.82	
285.207	0.85	
285.661	0.83	
286.115	0.82	
286.568	0.83	
287.022	0.82	
287.475	0.83	
287.929	0.84	
288.383	0.83	
288.836	0.82	
289.289	0.84	
289.743	0.85	
290.196	0.81	
290.649	0.83	
291.102	0.8	
291.556	0.77	
292.009	0.78	
292.462	0.78	
292.915	0.81	
293.368	0.78	
293.821	0.75	
294.274	0.73	
294.726	0.75	
295.179	0.74	
295.632	0.71	
296.084	0.69	
296.537	0.67	
296.99	0.66	
297.442	0.65	
297.895	0.64	
298.347	0.62	
298.8	0.59	
299.252	0.59	
299.704	0.57	
300.156	0.55	
300.609	0.54	
301.061	0.51	
301.513	0.49	
301.965	0.47	
302.417	0.46	
302.869	0.44	
303.321	0.42	
303.773	0.41	
304.224	0.39	
304.676	0.36	
305.128	0.36	
305.579	0.33	
306.031	0.31	
306.483	0.32	
306.934	0.29	
307.386	0.29	
307.837	0.25	
308.288	0.25	
308.74	0.25	
309.191	0.23	
309.642	0.21	
310.093	0.19	
310.544	0.2	
310.996	0.19	
311.447	0.17	
311.898	0.16	
312.348	0.15	
312.799	0.14	
313.25	0.12	
313.701	0.12	
314.152	0.11	
314.602	0.1	
315.053	0.09	
315.504	0.09	
315.954	0.09	
316.405	0.08	
316.855	0.07	
317.305	0.06	
317.756	0.07	
318.206	0.06	
318.656	0.05	
319.107	0.05	
319.557	0.04	
320.007	0.03	
320.457	0.03	
320.907	0.03	
321.357	0.02	
321.807	0.02	
322.257	0	
322.706	0	
323.156	0.01	
323.606	-0	
324.056	-0.01	
324.505	-0.01	
324.955	-0	
325.404	-0.02	
325.854	-0.01	
326.303	-0.03	
326.753	-0.02	
327.202	-0.03	
327.651	-0.03	
328.1	-0.03	
328.55	-0.03	
328.999	-0.04	
329.448	-0.03	
329.897	-0.03	
330.346	-0.05	
330.795	-0.03	
331.244	-0.03	
331.693	-0.04	
332.141	-0.03	
332.59	-0.04	
333.039	-0.04	
333.487	-0.06	
333.936	-0.06	
334.385	-0.05	
334.833	-0.05	
335.282	-0.05	
335.73	-0.05	
336.178	-0.06	
336.627	-0.04	
337.075	-0.06	
337.523	-0.06	
337.971	-0.06	
338.419	-0.05	
338.867	-0.06	
339.315	-0.06	
339.763	-0.06	
340.211	-0.06	
340.659	-0.07	
341.107	-0.07	
341.555	-0.06	
342.002	-0.06	
342.45	-0.06	
342.898	-0.06	
343.345	-0.06	
343.793	-0.07	
344.24	-0.07	
344.688	-0.07	
345.135	-0.07	
345.582	-0.08	
346.03	-0.07	
346.477	-0.06	
346.924	-0.07	
347.371	-0.08	
347.818	-0.07	
348.265	-0.07	
348.712	-0.07	
349.159	-0.06	
349.606	-0.08	
350.053	-0.07	
350.5	-0.07	
350.947	-0.07	
351.393	-0.08	
351.84	-0.06	
352.287	-0.08	
352.733	-0.08	
353.18	-0.08	
353.626	-0.08	
354.072	-0.07	
354.519	-0.07	
354.965	-0.08	
355.411	-0.07	
355.858	-0.08	
356.304	-0.07	
356.75	-0.07	
357.196	-0.08	
357.642	-0.08	
358.088	-0.09	
358.534	-0.07	
358.98	-0.08	
359.425	-0.08	
359.871	-0.08	
360.317	-0.08	
360.763	-0.08	
361.208	-0.08	
361.654	-0.07	
362.099	-0.07	
362.545	-0.08	
362.99	-0.08	
363.436	-0.09	
363.881	-0.08	
364.326	-0.07	
364.771	-0.08	
365.217	-0.07	
365.662	-0.07	
366.107	-0.08	
366.552	-0.08	
366.997	-0.07	
367.442	-0.06	
367.887	-0.08	
368.332	-0.08	
368.776	-0.08	
369.221	-0.09	
369.666	-0.08	
370.11	-0.08	
370.555	-0.09	
371	-0.07	
371.444	-0.09	
371.888	-0.09	
372.333	-0.08	
372.777	-0.08	
373.221	-0.07	
373.666	-0.08	
374.11	-0.08	
374.554	-0.07	
374.998	-0.08	
375.442	-0.08	
375.886	-0.07	
376.33	-0.07	
376.774	-0.07	
377.218	-0.07	
377.662	-0.07	
378.106	-0.08	
378.549	-0.07	
378.993	-0.07	
379.436	-0.06	
379.88	-0.08	
380.324	-0.07	
380.767	-0.07	
381.21	-0.08	
381.654	-0.08	
382.097	-0.08	
382.54	-0.07	
382.984	-0.07	
383.427	-0.07	
383.87	-0.07	
384.313	-0.08	
384.756	-0.08	
385.199	-0.07	
385.642	-0.07	
386.085	-0.08	
386.528	-0.08	
386.97	-0.08	
387.413	-0.07	
387.856	-0.07	
388.298	-0.08	
388.741	-0.08	
389.183	-0.07	
389.626	-0.07	
390.068	-0.07	
390.511	-0.07	
390.953	-0.07	
391.395	-0.07	
391.838	-0.06	
392.28	-0.06	
392.722	-0.07	
393.164	-0.07	
393.606	-0.07	
394.048	-0.07	
394.49	-0.08	
394.932	-0.07	
395.374	-0.07	
395.815	-0.07	
396.257	-0.08	
396.699	-0.06	
397.141	-0.08	
397.582	-0.06	
398.024	-0.07	
398.465	-0.06	
398.907	-0.06	
399.348	-0.07	
399.789	-0.08	
400.231	-0.07	
400.672	-0.08	
401.113	-0.07	
401.554	-0.08	
401.995	-0.08	
402.436	-0.07	
402.877	-0.08	
403.318	-0.07	
403.759	-0.07	
404.2	-0.07	
404.641	-0.07	
405.082	-0.07	
405.522	-0.07	
405.963	-0.07	
406.404	-0.08	
406.844	-0.07	
407.285	-0.08	
407.725	-0.08	
408.166	-0.07	
408.606	-0.07	
409.046	-0.08	
409.487	-0.08	
409.927	-0.07	
410.367	-0.08	
410.807	-0.07	
411.247	-0.06	
411.687	-0.09	
412.127	-0.08	
412.567	-0.08	
413.007	-0.07	
413.447	-0.08	
413.886	-0.07	
414.326	-0.06	
414.766	-0.07	
415.205	-0.07	
415.645	-0.07	
416.084	-0.08	
416.524	-0.07	
416.963	-0.06	
417.403	-0.06	
417.842	-0.07	
418.281	-0.07	
418.721	-0.08	
419.16	-0.07	
419.599	-0.07	
420.038	-0.06	
420.477	-0.06	
420.916	-0.07	
421.355	-0.07	
421.794	-0.08	
422.233	-0.07	
422.671	-0.07	
423.11	-0.08	
423.549	-0.08	
423.987	-0.07	
424.426	-0.08	
424.864	-0.07	
425.303	-0.07	
425.741	-0.08	
426.18	-0.07	
426.618	-0.07	
427.056	-0.08	
427.495	-0.06	
427.933	-0.08	
428.371	-0.08	
428.809	-0.08	
429.247	-0.08	
429.685	-0.07	
430.123	-0.08	
430.561	-0.07	
430.999	-0.07	
431.436	-0.07	
431.874	-0.08	
432.312	-0.07	
432.749	-0.08	
433.187	-0.07	
433.625	-0.07	
434.062	-0.08	
434.5	-0.08	
434.937	-0.07	
435.374	-0.07	
435.812	-0.06	
436.249	-0.07	
436.686	-0.07	
437.123	-0.07	
437.56	-0.06	
437.997	-0.07	
438.434	-0.07	
438.871	-0.08	
439.308	-0.07	
439.745	-0.06	
440.182	-0.06	
440.618	-0.06	
441.055	-0.07	
441.492	-0.06	
441.928	-0.07	
442.365	-0.06	
442.801	-0.06	
443.238	-0.07	
443.674	-0.08	
444.111	-0.06	
444.547	-0.07	
444.983	-0.07	
445.419	-0.07	
445.855	-0.07	
446.292	-0.06	
446.728	-0.06	
447.164	-0.06	
447.599	-0.06	
448.035	-0.07	
448.471	-0.07	
448.907	-0.06	
449.343	-0.05	
449.778	-0.06	
450.214	-0.06	
450.65	-0.07	
451.085	-0.06	
451.521	-0.06	
451.956	-0.06	
452.392	-0.06	
452.827	-0.06	
453.262	-0.06	
453.697	-0.05	
454.133	-0.06	
454.568	-0.08	
455.003	-0.06	
455.438	-0.05	
455.873	-0.06	
456.308	-0.06	
456.743	-0.06	
457.178	-0.05	
457.612	-0.06	
458.047	-0.06	
458.482	-0.06	
458.917	-0.06	
459.351	-0.05	
459.786	-0.06	
460.22	-0.05	
460.655	-0.06	
461.089	-0.06	
461.523	-0.05	
461.958	-0.06	
462.392	-0.06	
462.826	-0.06	
463.26	-0.05	
463.694	-0.05	
464.128	-0.05	
464.562	-0.06	
464.996	-0.05	
465.43	-0.06	
465.864	-0.06	
466.298	-0.05	
466.732	-0.05	
467.165	-0.04	
467.599	-0.04	
468.033	-0.05	
468.466	-0.06	
468.9	-0.05	
469.333	-0.04	
469.767	-0.04	
470.2	-0.04	
470.633	-0.05	
471.066	-0.05	
471.5	-0.05	
471.933	-0.04	
472.366	-0.04	
472.799	-0.04	
473.232	-0.04	
473.665	-0.05	
474.098	-0.04	
474.531	-0.04	
474.963	-0.04	
475.396	-0.04	
475.829	-0.04	
476.262	-0.04	
476.694	-0.04	
477.127	-0.04	
477.559	-0.04	
477.992	-0.04	
478.424	-0.04	
478.856	-0.03	
479.289	-0.04	
479.721	-0.04	
480.153	-0.03	
480.585	-0.03	
481.017	-0.03	
481.449	-0.04	
481.881	-0.04	
482.313	-0.03	
482.745	-0.03	
483.177	-0.02	
483.609	-0.04	
484.041	-0.03	
484.472	-0.03	
484.904	-0.02	
485.336	-0.03	
485.767	-0.04	
486.199	-0.03	
486.63	-0.02	
487.062	-0.03	
487.493	-0.03	
487.924	-0.03	
488.355	-0.02	
488.787	-0.03	
489.218	-0.03	
489.649	-0.03	
490.08	-0.03	
490.511	-0.03	
490.942	-0.03	
491.373	-0.03	
491.804	-0.02	
492.234	-0.03	
492.665	-0.02	
493.096	-0.03	
493.526	-0.02	
493.957	-0.02	
494.388	-0.02	
494.818	-0.02	
495.249	-0.02	
495.679	-0.02	
496.109	-0.02	
496.54	-0.03	
496.97	-0.02	
497.4	-0.02	
497.83	-0.02	
498.26	-0.03	
498.69	-0.02	
499.12	-0.02	
499.55	-0.02	
499.98	-0.02	
500.41	-0.02	
500.84	-0.02	
501.269	-0.02	
501.699	-0.01	
502.129	-0.02	
502.558	-0.01	
502.988	-0.02	
503.417	-0.02	
503.847	-0.03	
504.276	-0.02	
504.706	-0.02	
505.135	-0.02	
505.564	-0.02	
505.993	-0.02	
506.422	-0.01	
506.851	-0.01	
507.28	-0.01	
507.709	-0.01	
508.138	-0.01	
508.567	-0.02	
508.996	-0.01	
509.425	-0.01	
509.854	-0	
510.282	-0	
510.711	-0.01	
511.14	-0.01	
511.568	-0.01	
511.997	-0.01	
512.425	-0.01	
512.853	-0.01	
513.282	-0.01	
513.71	-0.01	
514.138	-0.01	
514.566	-0.01	
514.994	-0.01	
515.423	-0	
515.851	-0.01	
516.279	0	
516.706	-0.01	
517.134	0	
517.562	-0.01	
517.99	0	
518.418	-0.01	
518.845	-0.01	
519.273	0	
519.701	-0	
520.128	-0	
520.556	-0	
520.983	-0	
521.41	-0	
521.838	-0.01	
522.265	-0	
522.692	-0	
523.119	-0	
523.546	0	
523.973	-0	
524.4	0	
524.827	0.01	
525.254	-0	
525.681	0.01	
526.108	0	
526.535	0	
526.962	0	
527.388	0	
527.815	0	
528.241	0	
528.668	0	
529.094	0	
529.521	0.01	
529.947	0.01	
530.373	0.01	
530.8	0.01	
531.226	0.01	
531.652	0.01	
532.078	0.01	
532.504	0	
532.93	0.01	
533.356	0	
533.782	0	
534.208	0.01	
534.634	0.01	
535.059	0.01	
535.485	0.01	
535.911	0.01	
536.336	0.01	
536.762	0.01	
537.187	0.01	
537.613	0.01	
538.038	0.01	
538.464	0.02	
538.889	0.01	
539.314	0.01	
539.739	0.02	
540.164	0.01	
540.59	0.02	
541.015	0.01	
541.44	0.02	
541.865	0.02	
542.289	0.02	
542.714	0.02	
543.139	0.02	
543.564	0.02	
543.988	0.03	
544.413	0.02	
544.838	0.02	
545.262	0.02	
545.687	0.03	
546.111	0.03	
546.535	0.02	
546.96	0.02	
547.384	0.03	
547.808	0.03	
548.233	0.03	
548.657	0.03	
549.081	0.03	
549.505	0.03	
549.929	0.03	
550.353	0.03	
550.776	0.03	
551.2	0.04	
551.624	0.03	
552.048	0.03	
552.471	0.03	
552.895	0.03	
553.319	0.04	
553.742	0.03	
554.166	0.03	
554.589	0.04	
555.012	0.05	
555.436	0.04	
555.859	0.04	
556.282	0.04	
556.705	0.04	
557.128	0.04	
557.552	0.04	
557.975	0.04	
558.398	0.04	
558.82	0.05	
559.243	0.05	
559.666	0.04	
560.089	0.04	
560.512	0.05	
560.934	0.05	
561.357	0.05	
561.779	0.05	
562.202	0.05	
562.624	0.05	
563.047	0.05	
563.469	0.05	
563.891	0.06	
564.314	0.05	
564.736	0.06	
565.158	0.06	
565.58	0.05	
566.002	0.06	
566.424	0.06	
566.846	0.06	
567.268	0.06	
567.69	0.06	
568.111	0.06	
568.533	0.06	
568.955	0.06	
569.377	0.07	
569.798	0.07	
570.22	0.07	
570.641	0.07	
571.063	0.06	
571.484	0.07	
571.905	0.07	
572.327	0.06	
572.748	0.07	
573.169	0.07	
573.59	0.07	
574.011	0.07	
574.432	0.06	
574.853	0.07	
575.274	0.07	
575.695	0.08	
576.116	0.08	
576.536	0.08	
576.957	0.08	
577.378	0.07	
577.798	0.08	
578.219	0.08	
578.64	0.08	
579.06	0.08	
579.48	0.09	
579.901	0.09	
580.321	0.09	
580.741	0.08	
581.161	0.08	
581.582	0.08	
582.002	0.09	
582.422	0.09	
582.842	0.09	
583.262	0.1	
583.682	0.1	
584.101	0.1	
584.521	0.1	
584.941	0.1	
585.361	0.1	
585.78	0.11	
586.2	0.11	
586.619	0.11	
587.039	0.11	
587.458	0.11	
587.878	0.11	
588.297	0.11	
588.716	0.11	
589.136	0.12	
589.555	0.12	
589.974	0.12	
590.393	0.12	
590.812	0.12	
591.231	0.12	
591.65	0.12	
592.069	0.12	
592.488	0.13	
592.906	0.12	
593.325	0.12	
593.744	0.13	
594.162	0.12	
594.581	0.12	
594.999	0.12	
595.418	0.13	
595.836	0.13	
596.255	0.13	
596.673	0.13	
597.091	0.12	
597.509	0.13	
597.928	0.13	
598.346	0.12	
598.764	0.13	
599.182	0.12	
599.6	0.13	
600.018	0.13	
600.435	0.13	
600.853	0.14	
601.271	0.14	
601.689	0.14	
602.106	0.14	
602.524	0.15	
602.941	0.16	
603.359	0.15	
603.776	0.15	
604.194	0.16	
604.611	0.16	
605.028	0.17	
605.446	0.17	
605.863	0.17	
606.28	0.17	
606.697	0.17	
607.114	0.18	
607.531	0.19	
607.948	0.19	
608.365	0.19	
608.782	0.19	
609.198	0.21	
609.615	0.2	
610.032	0.21	
610.448	0.21	
610.865	0.22	
611.281	0.23	
611.698	0.23	
612.114	0.22	
612.531	0.23	
612.947	0.23	
613.363	0.23	
613.779	0.24	
614.196	0.25	
614.612	0.25	
615.028	0.25	
615.444	0.25	
615.86	0.26	
616.276	0.27	
616.691	0.27	
617.107	0.27	
617.523	0.28	
617.939	0.28	
618.354	0.28	
618.77	0.29	
619.185	0.29	
619.601	0.29	
620.016	0.29	
620.432	0.3	
620.847	0.31	
621.262	0.31	
621.677	0.31	
622.093	0.31	
622.508	0.32	
622.923	0.32	
623.338	0.33	
623.753	0.33	
624.168	0.34	
624.583	0.34	
624.997	0.34	
625.412	0.35	
625.827	0.35	
626.242	0.36	
626.656	0.36	
627.071	0.36	
627.485	0.37	
627.9	0.36	
628.314	0.37	
628.728	0.38	
629.143	0.38	
629.557	0.39	
629.971	0.39	
630.385	0.4	
630.799	0.4	
631.213	0.4	
631.627	0.41	
632.041	0.41	
632.455	0.42	
632.869	0.41	
633.283	0.42	
633.697	0.43	
634.11	0.43	
634.524	0.44	
634.937	0.44	
635.351	0.44	
635.764	0.45	
636.178	0.44	
636.591	0.46	
637.004	0.46	
637.418	0.46	
637.831	0.46	
638.244	0.47	
638.657	0.47	
639.07	0.48	
639.483	0.49	
639.896	0.49	
640.309	0.49	
640.722	0.5	
641.135	0.51	
641.547	0.51	
641.96	0.52	
642.373	0.51	
642.785	0.51	
643.198	0.52	
643.61	0.53	
644.023	0.53	
644.435	0.54	
644.848	0.54	
645.26	0.55	
645.672	0.56	
646.084	0.56	
646.496	0.57	
646.908	0.57	
647.32	0.57	
647.732	0.57	
648.144	0.58	
648.556	0.58	
648.968	0.59	
649.38	0.59	
649.791	0.59	
650.203	0.61	
650.615	0.61	
651.026	0.62	
651.438	0.63	
651.849	0.62	
652.261	0.63	
652.672	0.63	
653.083	0.64	
653.495	0.65	
653.906	0.65	
654.317	0.65	
654.728	0.66	
655.139	0.66	
655.55	0.66	
655.961	0.67	
656.372	0.67	
656.783	0.68	
657.193	0.69	
657.604	0.69	
658.015	0.7	
658.425	0.71	
658.836	0.72	
659.246	0.71	
659.657	0.72	
660.067	0.72	
660.478	0.74	
660.888	0.74	
661.298	0.74	
661.708	0.75	
662.119	0.76	
662.529	0.75	
662.939	0.77	
663.349	0.77	
663.759	0.78	
664.169	0.78	
664.578	0.78	
664.988	0.8	
665.398	0.8	
665.808	0.81	
666.217	0.82	
666.627	0.81	
667.036	0.82	
667.446	0.83	
667.855	0.83	
668.265	0.84	
668.674	0.84	
669.083	0.84	
669.492	0.86	
669.902	0.86	
670.311	0.87	
670.72	0.86	
671.129	0.87	
671.538	0.88	
671.947	0.88	
672.355	0.89	
672.764	0.9	
673.173	0.9	
673.582	0.91	
673.99	0.9	
674.399	0.91	
674.807	0.92	
675.216	0.92	
675.624	0.92	
676.033	0.93	
676.441	0.94	
676.849	0.94	
677.258	0.96	
677.666	0.95	
678.074	0.96	
678.482	0.97	
678.89	0.97	
679.298	0.96	
679.706	0.97	
680.114	0.98	
680.522	0.99	
680.929	0.99	
681.337	1	
681.745	1	
682.152	0.99	
682.56	1.02	
682.967	1.01	
683.375	1.01	
683.782	1.02	
684.189	1.02	
684.597	1.02	
685.004	1.03	
685.411	1.03	
685.818	1.05	
686.225	1.04	
686.632	1.04	
687.039	1.06	
687.446	1.06	
687.853	1.05	
688.26	1.06	
688.667	1.06	
689.073	1.06	
689.48	1.07	
689.887	1.07	
690.293	1.08	
690.7	1.08	
691.106	1.08	
691.513	1.1	
691.919	1.09	
692.325	1.1	
692.732	1.11	
693.138	1.11	
693.544	1.11	
693.95	1.11	
694.356	1.11	
694.762	1.13	
695.168	1.11	
695.574	1.14	
695.98	1.13	
696.385	1.14	
696.791	1.14	
697.197	1.14	
697.602	1.14	
698.008	1.15	
698.413	1.14	
698.819	1.16	
699.224	1.15	
699.63	1.15	
700.035	1.17	
700.44	1.15	
700.845	1.18	
701.251	1.17	
701.656	1.16	
702.061	1.17	
702.466	1.17	
702.871	1.17	
703.275	1.17	
703.68	1.19	
704.085	1.2	
704.49	1.19	
704.894	1.19	
705.299	1.19	
705.704	1.21	
706.108	1.19	
706.513	1.19	
706.917	1.19	
707.321	1.21	
707.726	1.22	
708.13	1.21	
708.534	1.21	
708.938	1.22	
709.342	1.21	
709.746	1.21	
710.15	1.23	
710.554	1.23	
710.958	1.23	
711.362	1.23	
711.766	1.25	
712.17	1.24	
712.573	1.25	
712.977	1.24	
713.38	1.23	
713.784	1.24	
714.187	1.24	
714.591	1.26	
714.994	1.24	
715.397	1.27	
715.801	1.26	
716.204	1.26	
716.607	1.25	
717.01	1.26	
717.413	1.27	
717.816	1.26	
718.219	1.27	
718.622	1.27	
719.025	1.27	
719.428	1.27	
719.83	1.28	
720.233	1.27	
720.636	1.28	
721.038	1.27	
721.441	1.27	
721.843	1.28	
722.246	1.27	
722.648	1.28	
723.05	1.28	
723.453	1.3	
723.855	1.27	
724.257	1.3	
724.659	1.29	
725.061	1.3	
725.463	1.3	
725.865	1.31	
726.267	1.29	
726.669	1.31	
727.07	1.3	
727.472	1.29	
727.874	1.28	
728.276	1.3	
728.677	1.3	
729.079	1.29	
729.48	1.31	
729.881	1.32	
730.283	1.31	
730.684	1.31	
731.085	1.3	
731.487	1.31	
731.888	1.3	
732.289	1.3	
732.69	1.3	
733.091	1.32	
733.492	1.3	
733.893	1.32	
734.294	1.29	
734.694	1.32	
735.095	1.31	
735.496	1.32	
735.896	1.32	
736.297	1.31	
736.697	1.31	
737.098	1.31	
737.498	1.31	
737.899	1.31	
738.299	1.32	
738.699	1.33	
739.099	1.3	
739.5	1.33	
739.9	1.33	
740.3	1.32	
740.7	1.32	
741.1	1.31	
741.5	1.3	
741.899	1.31	
742.299	1.31	
742.699	1.3	
743.099	1.32	
743.498	1.32	
743.898	1.31	
744.297	1.29	
744.697	1.3	
745.096	1.31	
745.495	1.3	
745.895	1.32	
746.294	1.31	
746.693	1.31	
747.092	1.31	
747.491	1.3	
747.89	1.28	
748.289	1.29	
748.688	1.29	
749.087	1.29	
749.486	1.3	
749.885	1.29	
750.284	1.29	
750.682	1.3	
751.081	1.31	
751.479	1.32	
751.878	1.29	
752.276	1.29	
752.675	1.32	
753.073	1.3	
753.471	1.29	
753.87	1.3	
754.268	1.31	
754.666	1.31	
755.064	1.3	
755.462	1.32	
755.86	1.3	
756.258	1.31	
756.656	1.3	
757.054	1.32	
757.452	1.31	
757.849	1.34	
758.247	1.31	
758.645	1.32	
759.042	1.33	
759.44	1.32	
759.837	1.32	
760.234	1.31	
760.632	1.33	
761.029	1.33	
761.426	1.32	
761.823	1.31	
762.221	1.31	
762.618	1.28	
763.015	1.3	
763.412	1.31	
763.809	1.29	
764.205	1.3	
764.602	1.3	
764.999	1.29	
765.396	1.28	
765.792	1.3	
766.189	1.29	
766.586	1.28	
766.982	1.27	
767.378	1.28	
767.775	1.26	
768.171	1.29	
768.567	1.29	
768.964	1.28	
769.36	1.28	
769.756	1.26	
770.152	1.26	
770.548	1.26	
770.944	1.26	
771.34	1.26	
771.736	1.27	
772.132	1.25	
772.527	1.26	
772.923	1.23	
773.319	1.24	
773.714	1.24	
774.11	1.25	
774.505	1.24	
774.901	1.24	
775.296	1.25	
775.691	1.24	
776.087	1.23	
776.482	1.23	
776.877	1.22	
777.272	1.24	
777.667	1.23	
778.062	1.24	
778.457	1.22	
778.852	1.24	
779.247	1.23	
779.642	1.21	
780.037	1.21	
780.431	1.2	
780.826	1.22	
781.22	1.21	
781.615	1.22	
782.009	1.21	
782.404	1.2	
782.798	1.2	
783.193	1.19	
783.587	1.21	
783.981	1.19	
784.375	1.2	
784.769	1.21	
785.163	1.19	
785.557	1.2	
785.951	1.2	
786.345	1.21	
786.739	1.19	
787.133	1.2	
787.527	1.2	
787.92	1.18	
788.314	1.19	
788.707	1.19	
789.101	1.17	
789.494	1.19	
789.888	1.18	
790.281	1.17	
790.674	1.19	
791.068	1.17	
791.461	1.19	
791.854	1.17	
792.247	1.19	
792.64	1.17	
793.033	1.16	
793.426	1.19	
793.819	1.18	
794.212	1.17	
794.605	1.16	
794.997	1.18	
795.39	1.17	
795.782	1.17	
796.175	1.17	
796.568	1.16	
796.96	1.16	
797.352	1.16	
797.745	1.16	
798.137	1.15	
798.529	1.16	
798.921	1.15	
799.314	1.18	
799.706	1.16	
800.098	1.16	
800.49	1.15	
800.882	1.15	
801.273	1.16	
801.665	1.14	
802.057	1.14	
802.449	1.15	
802.84	1.15	
803.232	1.15	
803.623	1.14	
804.015	1.15	
804.406	1.18	
804.798	1.14	
805.189	1.13	
805.58	1.14	
805.972	1.13	
806.363	1.13	
806.754	1.13	
807.145	1.12	
807.536	1.13	
807.927	1.15	
808.318	1.15	
808.709	1.13	
809.099	1.15	
809.49	1.14	
809.881	1.15	
810.271	1.15	
810.662	1.12	
811.053	1.13	
811.443	1.13	
811.833	1.14	
812.224	1.13	
812.614	1.13	
813.004	1.13	
813.395	1.15	
813.785	1.11	
814.175	1.14	
814.565	1.12	
814.955	1.13	
815.345	1.11	
815.735	1.12	
816.124	1.12	
816.514	1.13	
816.904	1.12	
817.294	1.12	
817.683	1.11	
818.073	1.1	
818.462	1.12	
818.852	1.1	
819.241	1.11	
819.63	1.12	
820.02	1.12	
820.409	1.12	
820.798	1.11	
821.187	1.09	
821.576	1.1	
821.965	1.12	
822.354	1.11	
822.743	1.1	
823.132	1.1	
823.521	1.1	
823.91	1.12	
824.298	1.1	
824.687	1.1	
825.076	1.09	
825.464	1.08	
825.853	1.09	
826.241	1.1	
826.629	1.09	
827.018	1.07	
827.406	1.09	
827.794	1.08	
828.182	1.09	
828.571	1.09	
828.959	1.09	
829.347	1.09	
829.735	1.09	
830.122	1.06	
830.51	1.08	
830.898	1.06	
831.286	1.07	
831.673	1.07	
832.061	1.06	
832.449	1.07	
832.836	1.08	
833.224	1.08	
833.611	1.07	
833.998	1.08	
834.386	1.06	
834.773	1.06	
835.16	1.06	
835.547	1.06	
835.934	1.07	
836.321	1.05	
836.708	1.06	
837.095	1.04	
837.482	1.07	
837.869	1.07	
838.256	1.06	
838.642	1.05	
839.029	1.05	
839.416	1.06	
839.802	1.05	
840.189	1.05	
840.575	1.04	
840.962	1.04	
841.348	1.03	
841.734	1.03	
842.12	1.04	
842.507	1.03	
842.893	1.03	
843.279	1.02	
843.665	1.02	
844.051	1.01	
844.437	1.01	
844.822	1.02	
845.208	1.02	
845.594	1.02	
845.98	1.02	
846.365	1.02	
846.751	1.02	
847.136	1.01	
847.522	1.03	
847.907	0.99	
848.293	1.02	
848.678	1.01	
849.063	1	
849.448	0.99	
849.834	1.01	
850.219	0.99	
850.604	1	
850.989	0.99	
851.374	0.99	
851.758	0.99	
852.143	0.97	
852.528	0.98	
852.913	0.98	
853.297	0.95	
853.682	0.98	
854.067	0.97	
854.451	0.98	
854.836	0.96	
855.22	0.96	
855.604	0.96	
855.989	0.97	
856.373	0.95	
856.757	0.97	
857.141	0.96	
857.525	0.96	
857.909	0.95	
858.293	0.94	
858.677	0.95	
859.061	0.96	
859.445	0.94	
859.828	0.95	
860.212	0.95	
860.596	0.97	
860.979	0.93	
861.363	0.95	
861.746	0.96	
862.13	0.94	
862.513	0.93	
862.896	0.93	
863.28	0.93	
863.663	0.92	
864.046	0.92	
864.429	0.94	
864.812	0.92	
865.195	0.91	
865.578	0.91	
865.961	0.89	
866.344	0.92	
866.726	0.91	
867.109	0.91	
867.492	0.91	
867.874	0.88	
868.257	0.9	
868.639	0.91	
869.022	0.9	
869.404	0.9	
869.787	0.88	
870.169	0.9	
870.551	0.89	
870.933	0.89	
871.315	0.88	
871.697	0.88	
872.079	0.88	
872.461	0.87	
872.843	0.86	
873.225	0.87	
873.607	0.87	
873.989	0.86	
874.37	0.88	
874.752	0.87	
875.134	0.85	
875.515	0.87	
875.896	0.87	
876.278	0.86	
876.659	0.85	
877.041	0.86	
877.422	0.84	
877.803	0.85	
878.184	0.84	
878.565	0.85	
878.946	0.85	
879.327	0.84	
879.708	0.85	
880.089	0.84	
880.47	0.84	
880.851	0.86	
881.231	0.86	
881.612	0.85	
881.993	0.86	
882.373	0.86	
882.754	0.86	
883.134	0.88	
883.514	0.86	
883.895	0.88	
884.275	0.87	
884.655	0.88	
885.035	0.89	
885.415	0.88	
885.795	0.89	
886.175	0.9	
886.555	0.89	
886.935	0.88	
887.315	0.91	
887.695	0.9	
888.075	0.91	
888.454	0.9	
888.834	0.92	
889.213	0.91	
889.593	0.92	
889.972	0.91	
890.352	0.9	
890.731	0.92	
891.11	0.92	
891.49	0.89	
891.869	0.89	
892.248	0.91	
892.627	0.89	
893.006	0.89	
893.385	0.87	
893.764	0.87	
894.143	0.85	
894.522	0.87	
894.9	0.86	
895.279	0.85	
895.658	0.83	
896.036	0.83	
896.415	0.82	
896.793	0.82	
897.172	0.81	
897.55	0.79	
897.928	0.78	
898.307	0.77	
898.685	0.78	
899.063	0.78	
899.441	0.78	
899.819	0.75	
900.197	0.74	
900.575	0.74	
900.953	0.72	
901.331	0.73	
901.708	0.73	
902.086	0.72	
902.464	0.69	
902.841	0.7	
903.219	0.71	
903.596	0.67	
903.974	0.66	
904.351	0.66	
904.729	0.67	
905.106	0.65	
905.483	0.66	
905.86	0.64	
906.237	0.64	
906.614	0.64	
906.991	0.63	
907.368	0.63	
907.745	0.6	
908.122	0.63	
908.499	0.61	
908.875	0.6	
909.252	0.6	
909.629	0.59	
910.005	0.58	
910.382	0.58	
910.758	0.56	
911.135	0.57	
911.511	0.56	
911.887	0.56	
912.264	0.56	
912.64	0.55	
913.016	0.53	
913.392	0.53	
913.768	0.55	
914.144	0.53	
914.52	0.52	
914.896	0.52	
915.271	0.51	
915.647	0.48	
916.023	0.51	
916.398	0.48	
916.774	0.48	
917.15	0.48	
917.525	0.46	
917.9	0.46	
918.276	0.46	
918.651	0.46	
919.026	0.46	
919.402	0.44	
919.777	0.43	
920.152	0.45	
920.527	0.43	
920.902	0.42	
921.277	0.41	
921.652	0.42	
922.026	0.41	
922.401	0.4	
922.776	0.4	
923.15	0.4	
923.525	0.38	
923.9	0.39	
924.274	0.36	
924.648	0.36	
925.023	0.37	
925.397	0.38	
925.771	0.36	
926.146	0.34	
926.52	0.35	
926.894	0.34	
927.268	0.33	
927.642	0.33	
928.016	0.34	
928.39	0.32	
928.764	0.31	
929.137	0.3	
929.511	0.3	
929.885	0.29	
930.258	0.29	
930.632	0.28	
931.005	0.26	
931.379	0.26	
931.752	0.25	
932.125	0.25	
932.499	0.25	
932.872	0.24	
933.245	0.23	
933.618	0.23	
933.991	0.22	
934.364	0.21	
934.737	0.2	
935.11	0.22	
935.483	0.2	
935.856	0.18	
936.228	0.18	
936.601	0.18	
936.974	0.15	
937.346	0.17	
937.719	0.16	
938.091	0.14	
938.464	0.15	
938.836	0.13	
939.208	0.14	
939.58	0.13	
939.953	0.13	
940.325	0.12	
940.697	0.13	
941.069	0.12	
941.441	0.11	
941.813	0.12	
942.184	0.1	
942.556	0.08	
942.928	0.1	
943.3	0.09	
943.671	0.08	
944.043	0.06	
944.414	0.06	
944.786	0.06	
945.157	0.08	
945.529	0.05	
945.9	0.05	
946.271	0.04	
946.642	0	
947.013	0.02	
947.384	0.04	
947.756	0.01	
948.126	0.01	
948.497	-0.01	
948.868	-0.01	
949.239	-0.02	
949.61	-0.05	
949.98	-0.04	
950.351	-0.05	
950.722	-0.04	
951.092	-0.04	
951.463	-0.05	
951.833	-0.06	
952.203	-0.06	
952.574	-0.06	
952.944	-0.07	
953.314	-0.1	
953.684	-0.09	
954.054	-0.09	
954.424	-0.07	
954.794	-0.11	
955.164	-0.1	
955.534	-0.09	
955.904	-0.13	
956.274	-0.11	
956.643	-0.12	
957.013	-0.12	
957.383	-0.15	
957.752	-0.14	
958.122	-0.17	
958.491	-0.16	
958.86	-0.15	
959.23	-0.19	
959.599	-0.18	
959.968	-0.18	
960.337	-0.2	
960.706	-0.17	
961.075	-0.24	
961.444	-0.21	
961.813	-0.19	
962.182	-0.22	
962.551	-0.19	
962.92	-0.23	
963.288	-0.21	
963.657	-0.22	
964.026	-0.24	
964.394	-0.26	
964.763	-0.25	
965.131	-0.26	
965.499	-0.29	
965.868	-0.29	
966.236	-0.23	
966.604	-0.28	
966.972	-0.28	
967.34	-0.24	
967.708	-0.25	
968.076	-0.26	
968.444	-0.31	
968.812	-0.29	
969.18	-0.29	
969.548	-0.24	
969.915	-0.27	
970.283	-0.3	
970.651	-0.34	
971.018	-0.33	
971.386	-0.31	
971.753	-0.28	
972.121	-0.33	
972.488	-0.35	
972.855	-0.35	
973.222	-0.32	
973.589	-0.3	
973.957	-0.37	
974.324	-0.32	
974.691	-0.36	
975.057	-0.35	
975.424	-0.33	
975.791	-0.38	
976.158	-0.35	
976.525	-0.39	
976.891	-0.39	
977.258	-0.39	
977.624	-0.39	
977.991	-0.39	
978.357	-0.43	
978.724	-0.41	
979.09	-0.4	
979.456	-0.38	
979.822	-0.42	
980.189	-0.43	
980.555	-0.43	
980.921	-0.44	
981.287	-0.4	
981.653	-0.39	
982.019	-0.45	
982.384	-0.46	
982.75	-0.41	
983.116	-0.45	
983.481	-0.43	
983.847	-0.45	
984.213	-0.47	
984.578	-0.47	
984.944	-0.41	
985.309	-0.47	
985.674	-0.45	
986.039	-0.47	
986.405	-0.48	
986.77	-0.48	
987.135	-0.47	
987.5	-0.55	
987.865	-0.48	
988.23	-0.53	
988.595	-0.58	
988.96	-0.46	
989.324	-0.54	
989.689	-0.56	
990.054	-0.51	
990.418	-0.55	
990.783	-0.52	
991.147	-0.54	
991.512	-0.53	
991.876	-0.55	
992.24	-0.58	
992.605	-0.6	
992.969	-0.56	
993.333	-0.59	
993.697	-0.52	
994.061	-0.51	
994.425	-0.61	
994.789	-0.59	
995.153	-0.63	
995.517	-0.58	
995.881	-0.64	
996.244	-0.63	
996.608	-0.59	
996.971	-0.62	
997.335	-0.58	
997.698	-0.58	
998.062	-0.63	
998.425	-0.62	
998.789	-0.58	
999.152	-0.64	
999.515	-0.69	
999.878	-0.64	
1000.241	-0.61	
1000.604	-0.69	
1000.967	-0.64	
1001.33	-0.71	
1001.693	-0.63	
1002.056	-0.67	
1002.419	-0.75	
1002.781	-0.69	
1003.144	-0.71	
1003.507	-0.67	
1003.869	-0.67	
1004.232	-0.72	
1004.594	-0.6	
1004.956	-0.68	
1005.319	-0.66	
1005.681	-0.75	
1006.043	-0.69	
1006.405	-0.64	
1006.767	-0.75	
1007.129	-0.73	
1007.491	-0.72	
1007.853	-0.82	
1008.215	-0.83	
1008.577	-0.7	
1008.939	-0.74	
1009.3	-0.81	
1009.662	-0.82	
1010.024	-0.82	
1010.385	-0.77	
1010.747	-0.72	
1011.108	-0.88	
1011.469	-0.77	
1011.831	-0.82	
1012.192	-0.8	
1012.553	-0.72	
1012.914	-0.78	
1013.275	-0.72	
1013.636	-0.76	
1013.997	-0.7	
1014.358	-0.96	
1014.719	-0.92	
1015.08	-0.9	
1015.441	-0.9	
1015.801	-0.8	
1016.162	-0.79	
1016.523	-0.82	
1016.883	-0.86	
1017.244	-0.83	
1017.604	-0.8	
1017.964	-0.8	
1018.325	-0.84	
1018.685	-0.96	
1019.045	-0.97	
1019.405	-0.93	
1019.765	-0.9	
1020.125	-0.88	
1020.485	-0.88	
1020.845	-0.9	
1021.205	-0.87	
1021.565	-0.78	
1021.925	-0.88	
1022.284	-0.85	
1022.644	-0.89	
1023.004	-0.83	
1023.363	-0.93	
1023.723	-1.02	
1024.082	-0.92	
1024.441	-0.96	
1024.801	-0.88	
1025.16	-0.9	
1025.519	-1.06	
1025.878	-0.83	
1026.237	-1.1	
1026.596	-0.94	
1026.955	-0.97	
1027.314	-0.86	
1027.673	-0.92	
1028.032	-0.9	
1028.39	-0.81	
1028.749	-1	
1029.108	-0.92	
1029.466	-1.03	
1029.825	-1.02	
1030.183	-0.95	
1030.542	-0.99	
1030.9	-0.87	
1031.258	-1.12	
1031.616	-0.89	
1031.975	-0.89	
1032.333	-0.89	
